02/12/2019 10:27
Laser wavelength: -3
N to average: 1
Int: 0.10 s
LambdaCenter: 860.0 nm
grating: 0 
Incident_Pol:  Circular
Detection_Pol:  Unpolarized

 -------------
Grating 0=300 gr 1000 nm/mirror
Grating 1=900 gr 600 nm/600 gr 1000 nm
Grating 2=1800 gr 500 nm
1.597318	110.000000
1.596978	80.000000
1.596638	140.000000
1.596298	140.000000
1.595959	130.000000
1.595619	100.000000
1.595280	120.000000
1.594941	100.000000
1.594602	130.000000
1.594263	140.000000
1.593924	100.000000
1.593586	90.000000
1.593247	90.000000
1.592909	140.000000
1.592571	70.000000
1.592233	110.000000
1.591895	120.000000
1.591557	130.000000
1.591220	170.000000
1.590882	140.000000
1.590545	60.000000
1.590208	130.000000
1.589871	170.000000
1.589534	120.000000
1.589197	70.000000
1.588861	100.000000
1.588524	110.000000
1.588188	160.000000
1.587852	190.000000
1.587516	140.000000
1.587180	190.000000
1.586844	150.000000
1.586509	110.000000
1.586173	170.000000
1.585838	150.000000
1.585503	90.000000
1.585168	130.000000
1.584833	100.000000
1.584498	200.000000
1.584164	100.000000
1.583829	160.000000
1.583495	110.000000
1.583161	130.000000
1.582827	170.000000
1.582493	70.000000
1.582159	110.000000
1.581826	130.000000
1.581492	70.000000
1.581159	130.000000
1.580826	160.000000
1.580493	170.000000
1.580160	170.000000
1.579827	50.000000
1.579494	100.000000
1.579162	230.000000
1.578830	90.000000
1.578497	140.000000
1.578165	90.000000
1.577834	180.000000
1.577502	80.000000
1.577170	240.000000
1.576839	150.000000
1.576507	110.000000
1.576176	110.000000
1.575845	200.000000
1.575514	140.000000
1.575183	70.000000
1.574853	160.000000
1.574522	40.000000
1.574192	140.000000
1.573862	110.000000
1.573531	150.000000
1.573201	160.000000
1.572872	170.000000
1.572542	160.000000
1.572212	160.000000
1.571883	110.000000
1.571554	180.000000
1.571225	140.000000
1.570896	70.000000
1.570567	160.000000
1.570238	150.000000
1.569909	170.000000
1.569581	130.000000
1.569253	180.000000
1.568925	150.000000
1.568596	200.000000
1.568269	100.000000
1.567941	130.000000
1.567613	160.000000
1.567286	100.000000
1.566958	140.000000
1.566631	160.000000
1.566304	180.000000
1.565977	160.000000
1.565650	150.000000
1.565324	80.000000
1.564997	100.000000
1.564671	120.000000
1.564345	80.000000
1.564018	120.000000
1.563692	160.000000
1.563367	150.000000
1.563041	100.000000
1.562715	90.000000
1.562390	60.000000
1.562065	180.000000
1.561739	130.000000
1.561414	110.000000
1.561089	130.000000
1.560765	150.000000
1.560440	110.000000
1.560116	100.000000
1.559791	150.000000
1.559467	100.000000
1.559143	170.000000
1.558819	110.000000
1.558495	30.000000
1.558171	190.000000
1.557848	130.000000
1.557524	140.000000
1.557201	100.000000
1.556878	140.000000
1.556555	220.000000
1.556232	90.000000
1.555909	150.000000
1.555587	30.000000
1.555264	80.000000
1.554942	100.000000
1.554620	130.000000
1.554298	110.000000
1.553976	150.000000
1.553654	60.000000
1.553332	110.000000
1.553011	110.000000
1.552689	80.000000
1.552368	120.000000
1.552047	100.000000
1.551726	110.000000
1.551405	250.000000
1.551084	170.000000
1.550764	170.000000
1.550443	160.000000
1.550123	180.000000
1.549803	60.000000
1.549482	100.000000
1.549163	30.000000
1.548843	190.000000
1.548523	200.000000
1.548203	80.000000
1.547884	150.000000
1.547565	130.000000
1.547246	130.000000
1.546927	120.000000
1.546608	70.000000
1.546289	140.000000
1.545970	180.000000
1.545652	160.000000
1.545333	90.000000
1.545015	110.000000
1.544697	50.000000
1.544379	50.000000
1.544061	150.000000
1.543743	140.000000
1.543426	160.000000
1.543108	130.000000
1.542791	140.000000
1.542474	120.000000
1.542157	210.000000
1.541840	110.000000
1.541523	190.000000
1.541206	210.000000
1.540890	150.000000
1.540573	190.000000
1.540257	90.000000
1.539941	60.000000
1.539625	110.000000
1.539309	160.000000
1.538993	110.000000
1.538678	80.000000
1.538362	110.000000
1.538047	140.000000
1.537732	150.000000
1.537416	100.000000
1.537101	170.000000
1.536787	80.000000
1.536472	80.000000
1.536157	180.000000
1.535843	160.000000
1.535528	70.000000
1.535214	60.000000
1.534900	90.000000
1.534586	170.000000
1.534272	170.000000
1.533959	140.000000
1.533645	50.000000
1.533332	130.000000
1.533018	100.000000
1.532705	150.000000
1.532392	120.000000
1.532079	90.000000
1.531766	160.000000
1.531454	130.000000
1.531141	120.000000
1.530829	130.000000
1.530516	120.000000
1.530204	80.000000
1.529892	160.000000
1.529580	150.000000
1.529268	160.000000
1.528957	140.000000
1.528645	130.000000
1.528334	200.000000
1.528023	180.000000
1.527711	110.000000
1.527400	210.000000
1.527090	160.000000
1.526779	210.000000
1.526468	180.000000
1.526158	220.000000
1.525847	250.000000
1.525537	230.000000
1.525227	260.000000
1.524917	300.000000
1.524607	320.000000
1.524297	310.000000
1.523987	410.000000
1.523678	460.000000
1.523369	480.000000
1.523059	470.000000
1.522750	650.000000
1.522441	700.000000
1.522132	850.000000
1.521824	930.000000
1.521515	1120.000000
1.521206	1210.000000
1.520898	1500.000000
1.520590	1690.000000
1.520282	1960.000000
1.519974	2300.000000
1.519666	2720.000000
1.519358	3060.000000
1.519050	3680.000000
1.518743	4040.000000
1.518435	4870.000000
1.518128	5810.000000
1.517821	6700.000000
1.517514	7740.000000
1.517207	9260.000000
1.516900	10510.000000
1.516594	12320.000000
1.516287	14190.000000
1.515981	16690.000000
1.515675	19330.000000
1.515368	22570.000000
1.515062	27050.000000
1.514756	32320.000000
1.514451	39760.000000
1.514145	49010.000000
1.513840	60400.000000
1.513534	71830.000000
1.513229	82300.000000
1.512924	91460.000000
1.512619	98230.000000
1.512314	105210.000000
1.512009	108400.000000
1.511704	112040.000000
1.511400	114010.000000
1.511095	113820.000000
1.510791	108820.000000
1.510487	100860.000000
1.510183	90110.000000
1.509879	78300.000000
1.509575	67450.000000
1.509271	58590.000000
1.508968	49510.000000
1.508664	42180.000000
1.508361	35630.000000
1.508058	29550.000000
1.507755	23410.000000
1.507452	17760.000000
1.507149	14000.000000
1.506846	11450.000000
1.506544	9720.000000
1.506241	8670.000000
1.505939	7290.000000
1.505637	6540.000000
1.505335	6110.000000
1.505033	5680.000000
1.504731	5290.000000
1.504429	5480.000000
1.504127	5360.000000
1.503826	5510.000000
1.503524	5670.000000
1.503223	6200.000000
1.502922	6520.000000
1.502621	7110.000000
1.502320	7990.000000
1.502019	8890.000000
1.501719	9900.000000
1.501418	11220.000000
1.501118	12470.000000
1.500818	14180.000000
1.500517	15700.000000
1.500217	17890.000000
1.499917	19850.000000
1.499618	22590.000000
1.499318	25290.000000
1.499018	28850.000000
1.498719	31970.000000
1.498419	35950.000000
1.498120	40470.000000
1.497821	45590.000000
1.497522	50840.000000
1.497223	57850.000000
1.496925	65020.000000
1.496626	73060.000000
1.496327	82210.000000
1.496029	92320.000000
1.495731	103790.000000
1.495433	116660.000000
1.495135	132260.000000
1.494837	148160.000000
1.494539	165560.000000
1.494241	184980.000000
1.493944	206180.000000
1.493646	228450.000000
1.493349	250330.000000
1.493052	272730.000000
1.492755	294090.000000
1.492458	312150.000000
1.492161	328220.000000
1.491864	339230.000000
1.491568	346850.000000
1.491271	350280.000000
1.490975	352710.000000
1.490679	352540.000000
1.490382	350130.000000
1.490086	346250.000000
1.489791	341240.000000
1.489495	335140.000000
1.489199	329220.000000
1.488904	321760.000000
1.488608	314370.000000
1.488313	306180.000000
1.488018	296820.000000
1.487723	284790.000000
1.487428	273060.000000
1.487133	258320.000000
1.486838	241020.000000
1.486543	223550.000000
1.486249	203150.000000
1.485955	183130.000000
1.485660	162960.000000
1.485366	144350.000000
1.485072	126440.000000
1.484778	111330.000000
1.484484	97450.000000
1.484191	85870.000000
1.483897	75510.000000
1.483604	65730.000000
1.483310	56780.000000
1.483017	48880.000000
1.482724	41700.000000
1.482431	35150.000000
1.482138	29100.000000
1.481846	24540.000000
1.481553	20770.000000
1.481260	17390.000000
1.480968	14860.000000
1.480676	12500.000000
1.480384	10710.000000
1.480091	9450.000000
1.479800	8350.000000
1.479508	7290.000000
1.479216	6530.000000
1.478924	5690.000000
1.478633	5210.000000
1.478342	4700.000000
1.478050	4150.000000
1.477759	3850.000000
1.477468	3550.000000
1.477177	3110.000000
1.476886	2860.000000
1.476596	2630.000000
1.476305	2440.000000
1.476015	2270.000000
1.475724	2020.000000
1.475434	1910.000000
1.475144	1850.000000
1.474854	1570.000000
1.474564	1550.000000
1.474274	1400.000000
1.473985	1260.000000
1.473695	1200.000000
1.473406	1120.000000
1.473117	1050.000000
1.472827	1020.000000
1.472538	860.000000
1.472249	840.000000
1.471960	800.000000
1.471672	720.000000
1.471383	640.000000
1.471095	580.000000
1.470806	600.000000
1.470518	520.000000
1.470230	590.000000
1.469942	550.000000
1.469654	520.000000
1.469366	520.000000
1.469078	460.000000
1.468791	500.000000
1.468503	500.000000
1.468216	460.000000
1.467928	440.000000
1.467641	390.000000
1.467354	480.000000
1.467067	370.000000
1.466780	370.000000
1.466494	460.000000
1.466207	490.000000
1.465921	470.000000
1.465634	390.000000
1.465348	490.000000
1.465062	490.000000
1.464776	510.000000
1.464490	500.000000
1.464204	550.000000
1.463918	580.000000
1.463633	560.000000
1.463347	690.000000
1.463062	750.000000
1.462777	830.000000
1.462491	970.000000
1.462206	890.000000
1.461921	1050.000000
1.461637	1120.000000
1.461352	1250.000000
1.461067	1360.000000
1.460783	1510.000000
1.460498	1590.000000
1.460214	1890.000000
1.459930	2050.000000
1.459646	2020.000000
1.459362	2260.000000
1.459078	2510.000000
1.458795	2740.000000
1.458511	2990.000000
1.458227	3180.000000
1.457944	3540.000000
1.457661	3760.000000
1.457378	4070.000000
1.457095	4280.000000
1.456812	4580.000000
1.456529	4860.000000
1.456246	5180.000000
1.455964	5590.000000
1.455681	5430.000000
1.455399	5670.000000
1.455116	5770.000000
1.454834	5840.000000
1.454552	5870.000000
1.454270	5880.000000
1.453988	5770.000000
1.453707	5630.000000
1.453425	5780.000000
1.453143	5800.000000
1.452862	5570.000000
1.452581	5470.000000
1.452300	5440.000000
1.452018	5270.000000
1.451737	5150.000000
1.451457	5070.000000
1.451176	4780.000000
1.450895	4540.000000
1.450615	4280.000000
1.450334	3970.000000
1.450054	3700.000000
1.449774	3310.000000
1.449494	3120.000000
1.449214	2850.000000
1.448934	2660.000000
1.448654	2400.000000
1.448374	2170.000000
1.448095	1970.000000
1.447815	1800.000000
1.447536	1680.000000
1.447257	1460.000000
1.446978	1360.000000
1.446699	1230.000000
1.446420	1050.000000
1.446141	900.000000
1.445862	900.000000
1.445584	800.000000
1.445305	780.000000
1.445027	690.000000
1.444748	520.000000
1.444470	480.000000
1.444192	520.000000
1.443914	580.000000
1.443636	470.000000
1.443359	360.000000
1.443081	400.000000
1.442803	410.000000
1.442526	250.000000
1.442249	310.000000
1.441972	290.000000
1.441694	330.000000
1.441417	300.000000
1.441141	310.000000
1.440864	240.000000
1.440587	240.000000
1.440311	240.000000
1.440034	210.000000
1.439758	200.000000
1.439481	120.000000
1.439205	120.000000
1.438929	150.000000
1.438653	170.000000
1.438378	190.000000
1.438102	140.000000
1.437826	150.000000
1.437551	140.000000
1.437275	90.000000
1.437000	170.000000
1.436725	110.000000
1.436450	140.000000
1.436175	160.000000
1.435900	110.000000
1.435625	140.000000
1.435350	100.000000
1.435076	100.000000
1.434801	80.000000
1.434527	150.000000
1.434253	110.000000
1.433979	130.000000
1.433705	170.000000
1.433431	140.000000
1.433157	190.000000
1.432883	70.000000
1.432610	60.000000
1.432336	80.000000
1.432063	110.000000
1.431789	110.000000
1.431516	70.000000
1.431243	130.000000
1.430970	200.000000
1.430697	160.000000
1.430424	40.000000
1.430152	160.000000
1.429879	120.000000
1.429607	110.000000
1.429334	100.000000
1.429062	100.000000
1.428790	70.000000
1.428518	120.000000
1.428246	110.000000
1.427974	100.000000
1.427702	100.000000
1.427431	120.000000
1.427159	120.000000
1.426888	130.000000
1.426616	120.000000
1.426345	110.000000
1.426074	110.000000
1.425803	110.000000
1.425532	140.000000
1.425261	170.000000
1.424991	130.000000
1.424720	180.000000
1.424449	180.000000
1.424179	140.000000
1.423909	210.000000
1.423639	160.000000
1.423368	140.000000
1.423098	130.000000
1.422829	110.000000
1.422559	220.000000
1.422289	140.000000
1.422019	170.000000
1.421750	220.000000
1.421481	160.000000
1.421211	150.000000
1.420942	170.000000
1.420673	140.000000
1.420404	150.000000
1.420135	220.000000
1.419866	250.000000
1.419598	220.000000
1.419329	240.000000
1.419061	210.000000
1.418792	190.000000
1.418524	210.000000
1.418256	240.000000
1.417988	240.000000
1.417720	240.000000
1.417452	230.000000
1.417184	180.000000
1.416917	190.000000
1.416649	170.000000
1.416382	190.000000
1.416114	270.000000
1.415847	160.000000
1.415580	190.000000
1.415313	160.000000
1.415046	230.000000
1.414779	250.000000
1.414512	210.000000
1.414246	300.000000
1.413979	220.000000
1.413713	160.000000
1.413446	200.000000
1.413180	230.000000
1.412914	150.000000
1.412648	170.000000
1.412382	190.000000
1.412116	190.000000
1.411850	90.000000
1.411585	170.000000
1.411319	120.000000
1.411054	200.000000
1.410788	170.000000
1.410523	200.000000
1.410258	220.000000
1.409993	240.000000
1.409728	200.000000
1.409463	160.000000
1.409199	150.000000
1.408934	230.000000
1.408669	170.000000
1.408405	150.000000
1.408141	160.000000
1.407876	170.000000
1.407612	170.000000
1.407348	190.000000
1.407084	160.000000
1.406820	180.000000
1.406557	240.000000
1.406293	220.000000
1.406029	210.000000
1.405766	90.000000
1.405502	210.000000
1.405239	190.000000
1.404976	140.000000
1.404713	180.000000
1.404450	130.000000
1.404187	180.000000
1.403924	130.000000
1.403662	140.000000
1.403399	180.000000
1.403137	120.000000
1.402874	170.000000
1.402612	100.000000
1.402350	110.000000
1.402088	100.000000
1.401826	140.000000
1.401564	110.000000
1.401302	140.000000
1.401040	70.000000
1.400779	110.000000
1.400517	60.000000
1.400256	140.000000
1.399995	90.000000
1.399733	70.000000
1.399472	80.000000
1.399211	40.000000
1.398950	140.000000
1.398690	100.000000
1.398429	110.000000
1.398168	100.000000
1.397908	120.000000
1.397647	70.000000
1.397387	170.000000
1.397127	110.000000
1.396867	50.000000
1.396607	140.000000
1.396347	110.000000
1.396087	50.000000
1.395827	100.000000
1.395567	100.000000
1.395308	80.000000
1.395048	130.000000
1.394789	100.000000
1.394530	90.000000
1.394271	70.000000
1.394012	100.000000
1.393753	80.000000
1.393494	70.000000
1.393235	30.000000
1.392976	70.000000
1.392718	40.000000
1.392459	60.000000
1.392201	120.000000
1.391943	70.000000
1.391684	50.000000
1.391426	-20.000000
1.391168	60.000000
1.390910	80.000000
1.390652	100.000000
1.390395	130.000000
1.390137	70.000000
1.389880	110.000000
1.389622	70.000000
1.389365	30.000000
1.389108	0.000000
1.388850	80.000000
1.388593	110.000000
1.388336	60.000000
1.388080	70.000000
1.387823	110.000000
1.387566	70.000000
1.387309	50.000000
1.387053	130.000000
1.386797	90.000000
1.386540	90.000000
1.386284	50.000000
1.386028	20.000000
1.385772	50.000000
1.385516	30.000000
1.385260	60.000000
1.385004	100.000000
1.384749	30.000000
1.384493	80.000000
1.384238	70.000000
1.383982	80.000000
1.383727	80.000000
1.383472	110.000000
1.383217	60.000000
1.382962	80.000000
1.382707	60.000000
1.382452	90.000000
1.382198	50.000000
1.381943	100.000000
1.381689	90.000000
1.381434	90.000000
1.381180	80.000000
1.380926	70.000000
1.380671	30.000000
1.380417	70.000000
1.380163	-10.000000
1.379910	20.000000
1.379656	-10.000000
1.379402	60.000000
1.379149	70.000000
1.378895	80.000000
1.378642	20.000000
1.378388	60.000000
1.378135	80.000000
1.377882	140.000000
1.377629	110.000000
1.377376	20.000000
1.377123	140.000000
1.376871	130.000000
1.376618	40.000000
1.376365	90.000000
1.376113	100.000000
1.375861	100.000000
1.375608	50.000000
1.375356	100.000000
1.375104	70.000000
1.374852	70.000000
1.374600	90.000000
1.374348	100.000000
1.374097	50.000000
1.373845	120.000000
1.373593	70.000000
1.373342	80.000000
1.373091	100.000000
1.372839	130.000000
1.372588	140.000000
1.372337	120.000000
1.372086	90.000000
1.371835	160.000000
1.371584	120.000000
1.371334	160.000000
1.371083	130.000000
1.370833	110.000000
1.370582	120.000000
1.370332	130.000000
1.370082	90.000000
1.369831	190.000000
1.369581	160.000000
1.369331	130.000000
1.369082	190.000000
1.368832	170.000000
1.368582	110.000000
1.368332	130.000000
1.368083	200.000000
1.367833	210.000000
1.367584	180.000000
1.367335	250.000000
1.367086	180.000000
1.366837	130.000000
1.366588	190.000000
1.366339	120.000000
1.366090	140.000000
1.365841	90.000000
1.365593	190.000000
1.365344	200.000000
1.365096	230.000000
1.364847	190.000000
1.364599	200.000000
1.364351	240.000000
1.364103	200.000000
1.363855	310.000000
1.363607	250.000000
1.363359	250.000000
1.363112	190.000000
1.362864	240.000000
1.362616	240.000000
1.362369	200.000000
1.362122	210.000000
1.361874	250.000000
1.361627	280.000000
1.361380	240.000000
1.361133	230.000000
1.360886	300.000000
1.360639	300.000000
1.360393	260.000000
1.360146	250.000000
1.359899	320.000000
1.359653	240.000000
1.359407	250.000000
1.359160	240.000000
1.358914	230.000000
1.358668	220.000000
1.358422	230.000000
1.358176	230.000000
1.357930	260.000000
1.357685	230.000000
1.357439	240.000000
1.357193	250.000000
1.356948	200.000000
1.356703	250.000000
1.356457	200.000000
1.356212	220.000000
1.355967	220.000000
1.355722	210.000000
1.355477	240.000000
1.355232	250.000000
1.354987	210.000000
1.354743	250.000000
1.354498	200.000000
1.354254	260.000000
1.354009	220.000000
1.353765	180.000000
1.353521	140.000000
1.353276	180.000000
1.353032	150.000000
1.352788	130.000000
1.352544	200.000000
1.352301	200.000000
1.352057	160.000000
1.351813	190.000000
1.351570	170.000000
1.351326	190.000000
1.351083	150.000000
1.350840	190.000000
1.350597	150.000000
1.350353	170.000000
1.350110	170.000000
1.349868	130.000000
1.349625	160.000000
1.349382	150.000000
1.349139	180.000000
1.348897	220.000000
1.348654	150.000000
1.348412	220.000000
1.348170	150.000000
1.347927	180.000000
1.347685	180.000000
1.347443	180.000000
1.347201	150.000000
1.346959	140.000000
1.346718	120.000000
1.346476	200.000000
1.346234	180.000000
1.345993	100.000000
1.345751	70.000000
1.345510	160.000000
1.345269	80.000000
1.345027	50.000000
1.344786	180.000000
1.344545	150.000000
1.344304	140.000000
1.344064	110.000000
1.343823	70.000000
1.343582	110.000000
1.343342	200.000000
1.343101	130.000000
1.342861	90.000000
1.342620	110.000000
1.342380	80.000000
1.342140	150.000000
1.341900	100.000000
1.341660	160.000000
1.341420	110.000000
1.341180	70.000000
1.340941	100.000000
1.340701	70.000000
1.340461	30.000000
1.340222	90.000000
1.339983	100.000000
1.339743	130.000000
1.339504	150.000000
1.339265	90.000000
1.339026	100.000000
1.338787	140.000000
1.338548	140.000000
1.338309	60.000000
1.338071	90.000000
1.337832	130.000000
1.337594	70.000000
1.337355	100.000000
1.337117	80.000000
1.336878	150.000000
1.336640	90.000000
1.336402	130.000000
1.336164	80.000000
1.335926	70.000000
1.335688	50.000000
1.335451	150.000000
1.335213	100.000000
1.334975	110.000000
1.334738	80.000000
1.334500	90.000000
1.334263	160.000000
1.334026	80.000000
1.333789	80.000000
1.333552	80.000000
1.333315	110.000000
1.333078	90.000000
1.332841	130.000000
1.332604	80.000000
1.332367	110.000000
1.332131	70.000000
1.331894	30.000000
1.331658	60.000000
1.331422	190.000000
1.331185	70.000000
1.330949	30.000000
1.330713	170.000000
1.330477	50.000000
1.330241	70.000000
1.330005	100.000000
1.329770	90.000000
1.329534	30.000000
1.329299	40.000000
1.329063	90.000000
1.328828	70.000000
1.328592	90.000000
1.328357	150.000000
1.328122	130.000000
1.327887	170.000000
1.327652	210.000000
1.327417	190.000000
1.327182	100.000000
1.326947	70.000000
1.326713	60.000000
1.326478	160.000000
1.326244	40.000000
1.326009	130.000000
1.325775	150.000000
1.325541	100.000000
1.325307	50.000000
1.325072	80.000000
1.324838	130.000000
1.324605	140.000000
1.324371	110.000000
1.324137	60.000000
1.323903	130.000000
1.323670	140.000000
1.323436	140.000000
1.323203	140.000000
1.322969	100.000000
1.322736	110.000000
1.322503	150.000000
1.322270	100.000000
1.322037	110.000000
1.321804	110.000000
1.321571	150.000000
1.321338	130.000000
1.321106	100.000000
1.320873	140.000000
1.320641	200.000000
1.320408	50.000000
1.320176	60.000000
1.319944	130.000000
1.319711	130.000000
1.319479	90.000000
1.319247	30.000000
1.319015	130.000000
1.318783	170.000000
1.318552	50.000000
1.318320	80.000000
1.318088	80.000000
1.317857	160.000000
1.317625	110.000000
1.317394	80.000000
1.317163	100.000000
1.316932	100.000000
1.316700	110.000000
1.316469	140.000000
1.316238	70.000000
1.316008	70.000000
1.315777	100.000000
1.315546	70.000000
1.315315	90.000000
1.315085	90.000000
1.314854	60.000000
1.314624	70.000000
1.314394	80.000000
1.314163	90.000000
1.313933	160.000000
1.313703	130.000000
1.313473	90.000000
1.313243	90.000000
1.313013	30.000000
1.312784	130.000000
1.312554	160.000000
1.312324	50.000000
1.312095	70.000000
1.311865	100.000000
1.311636	90.000000
