04/12/2019 11:06
Laser wavelength: 730
N to average: 1
Int: 0.01 s
LambdaCenter: 700.0 nm
grating: 0 
Int: 0.01 s
LambdaCenter: 800.0 nm
grating: 0 
Int: 0.01 s
LambdaCenter: 810.0 nm
grating: 0 
Incident_Pol:  Circular
Detection_Pol:  Unpolarized

 -------------
Grating 0=300 gr 1000 nm/mirror
Grating 1=900 gr 600 nm/600 gr 1000 nm
Grating 2=1800 gr 500 nm
1.708913	-100.000000
1.708521	-500.000000
1.708128	300.000000
1.707736	800.000000
1.707345	200.000000
1.706953	100.000000
1.706561	600.000000
1.706170	300.000000
1.705779	0.000000
1.705388	400.000000
1.704997	100.000000
1.704607	-300.000000
1.704216	400.000000
1.703826	0.000000
1.703436	200.000000
1.703046	300.000000
1.702657	-200.000000
1.702267	500.000000
1.701878	500.000000
1.701489	200.000000
1.701100	700.000000
1.700711	900.000000
1.700322	400.000000
1.699934	300.000000
1.699546	-1000.000000
1.699158	-200.000000
1.698770	200.000000
1.698382	500.000000
1.697994	-200.000000
1.697607	300.000000
1.697220	-300.000000
1.696833	100.000000
1.696446	400.000000
1.696059	-400.000000
1.695673	700.000000
1.695287	500.000000
1.694900	-200.000000
1.694515	-300.000000
1.694129	100.000000
1.693743	-500.000000
1.693358	-100.000000
1.692972	200.000000
1.692587	200.000000
1.692202	400.000000
1.691818	-700.000000
1.691433	300.000000
1.691049	0.000000
1.690665	-900.000000
1.690281	-800.000000
1.689897	500.000000
1.689513	0.000000
1.689130	-400.000000
1.688746	800.000000
1.688363	500.000000
1.687980	100.000000
1.687597	200.000000
1.687215	-600.000000
1.686832	0.000000
1.686450	300.000000
1.686068	300.000000
1.685686	-100.000000
1.685304	400.000000
1.684922	100.000000
1.684541	-100.000000
1.684160	400.000000
1.683779	0.000000
1.683398	700.000000
1.683017	500.000000
1.682636	400.000000
1.682256	-300.000000
1.681876	300.000000
1.681496	-300.000000
1.681116	-500.000000
1.680736	200.000000
1.680357	-900.000000
1.679977	-200.000000
1.679598	300.000000
1.679219	-200.000000
1.678840	0.000000
1.678462	600.000000
1.678083	-300.000000
1.677705	-100.000000
1.677327	-500.000000
1.676949	200.000000
1.676571	0.000000
1.676193	0.000000
1.675816	600.000000
1.675438	200.000000
1.675061	0.000000
1.674684	-500.000000
1.674307	-600.000000
1.673931	100.000000
1.673554	900.000000
1.673178	-100.000000
1.672802	-500.000000
1.672426	-700.000000
1.672050	400.000000
1.671675	-500.000000
1.671299	300.000000
1.670924	600.000000
1.670549	800.000000
1.670174	500.000000
1.669799	800.000000
1.669424	-400.000000
1.669050	-900.000000
1.668676	1100.000000
1.668302	-300.000000
1.667928	-900.000000
1.667554	1300.000000
1.667180	-100.000000
1.666807	100.000000
1.666434	-300.000000
1.666060	-1100.000000
1.665687	100.000000
1.665315	600.000000
1.664942	500.000000
1.664570	700.000000
1.664197	-300.000000
1.663825	-100.000000
1.663453	0.000000
1.663082	900.000000
1.662710	-400.000000
1.662339	100.000000
1.661967	600.000000
1.661596	-100.000000
1.661225	200.000000
1.660854	500.000000
1.660484	-300.000000
1.660113	0.000000
1.659743	300.000000
1.659373	600.000000
1.659003	-200.000000
1.658633	0.000000
1.658264	900.000000
1.657894	300.000000
1.657525	600.000000
1.657156	100.000000
1.656787	-600.000000
1.656418	-100.000000
1.656049	-400.000000
1.655681	200.000000
1.655313	200.000000
1.654945	400.000000
1.654577	0.000000
1.654209	400.000000
1.653841	600.000000
1.653474	-100.000000
1.653106	-1100.000000
1.652739	200.000000
1.652372	-200.000000
1.652005	-600.000000
1.651639	800.000000
1.651272	100.000000
1.650906	300.000000
1.650540	0.000000
1.650174	0.000000
1.649808	500.000000
1.649442	-700.000000
1.649077	-100.000000
1.648711	800.000000
1.648346	-200.000000
1.647981	0.000000
1.647616	100.000000
1.647251	-1100.000000
1.646887	200.000000
1.646522	500.000000
1.646158	-600.000000
1.645794	-700.000000
1.645430	100.000000
1.645066	200.000000
1.644703	500.000000
1.644339	100.000000
1.643976	-700.000000
1.643613	600.000000
1.643250	200.000000
1.642887	-300.000000
1.642525	400.000000
1.642162	-200.000000
1.641800	0.000000
1.641438	800.000000
1.641076	-300.000000
1.640714	400.000000
1.640352	900.000000
1.639991	200.000000
1.639629	500.000000
1.639268	0.000000
1.638907	200.000000
1.638546	-500.000000
1.638185	200.000000
1.637825	-200.000000
1.637464	1000.000000
1.637104	-700.000000
1.636744	-500.000000
1.636384	200.000000
1.636024	-400.000000
1.635665	800.000000
1.635305	-300.000000
1.634946	100.000000
1.634587	-100.000000
1.634228	400.000000
1.633869	-600.000000
1.633510	0.000000
1.633152	700.000000
1.632794	-700.000000
1.632435	-100.000000
1.632077	200.000000
1.631720	-600.000000
1.631362	-100.000000
1.631004	200.000000
1.630647	100.000000
1.630290	-900.000000
1.629932	0.000000
1.629576	200.000000
1.629219	-500.000000
1.628862	-300.000000
1.628506	200.000000
1.628149	500.000000
1.627793	1000.000000
1.627437	900.000000
1.627081	-100.000000
1.626726	100.000000
1.626370	600.000000
1.626015	-700.000000
1.625660	-100.000000
1.625304	-600.000000
1.624950	500.000000
1.624595	100.000000
1.624240	100.000000
1.623886	-100.000000
1.623531	-200.000000
1.623177	100.000000
1.622823	-400.000000
1.622470	-300.000000
1.622116	100.000000
1.621762	-300.000000
1.621409	-600.000000
1.621056	-500.000000
1.620703	900.000000
1.620350	-200.000000
1.619997	-300.000000
1.619644	-300.000000
1.619292	800.000000
1.618940	200.000000
1.618588	600.000000
1.618236	0.000000
1.617884	-500.000000
1.617532	500.000000
1.617181	-400.000000
1.616829	200.000000
1.616478	500.000000
1.616127	-300.000000
1.615776	500.000000
1.615425	600.000000
1.615075	0.000000
1.614724	1700.000000
1.614374	1000.000000
1.614024	0.000000
1.613674	700.000000
1.613324	100.000000
1.612974	300.000000
1.612625	100.000000
1.612275	400.000000
1.611926	-100.000000
1.611577	-400.000000
1.611228	-500.000000
1.610879	800.000000
1.610530	200.000000
1.610182	400.000000
1.609834	200.000000
1.609485	-700.000000
1.609137	-400.000000
1.608789	0.000000
1.608442	300.000000
1.608094	300.000000
1.607747	-300.000000
1.607399	400.000000
1.607052	-100.000000
1.606705	300.000000
1.606358	-400.000000
1.606012	500.000000
1.605665	0.000000
1.605319	700.000000
1.604973	200.000000
1.604626	-200.000000
1.604281	700.000000
1.603935	700.000000
1.603589	200.000000
1.603244	-1400.000000
1.602898	-300.000000
1.602553	100.000000
1.602208	200.000000
1.601863	200.000000
1.601518	200.000000
1.601174	800.000000
1.600829	300.000000
1.600485	300.000000
1.600141	600.000000
1.599797	700.000000
1.599453	-700.000000
1.599109	200.000000
1.598766	400.000000
1.598422	100.000000
1.598079	300.000000
1.597736	0.000000
1.597393	500.000000
1.597050	-100.000000
1.596707	100.000000
1.596365	-500.000000
1.596022	-200.000000
1.595680	600.000000
1.595338	100.000000
1.594996	600.000000
1.594654	200.000000
1.594313	0.000000
1.593971	100.000000
1.593630	-100.000000
1.593289	100.000000
1.592948	-600.000000
1.592607	-100.000000
1.592266	400.000000
1.591925	1200.000000
1.591585	600.000000
1.591244	-1000.000000
1.590904	900.000000
1.590564	0.000000
1.590224	-600.000000
1.589885	300.000000
1.589545	300.000000
1.589205	-100.000000
1.588866	300.000000
1.588527	400.000000
1.588188	-200.000000
1.587849	-400.000000
1.587510	-400.000000
1.587172	300.000000
1.586833	300.000000
1.586495	-100.000000
1.586157	300.000000
1.585819	-800.000000
1.585481	200.000000
1.585143	-100.000000
1.584806	-1100.000000
1.584468	200.000000
1.584131	0.000000
1.583794	-300.000000
1.583457	-500.000000
1.583120	-300.000000
1.582783	-200.000000
1.582446	-300.000000
1.582110	-100.000000
1.581774	-100.000000
1.581437	400.000000
1.581101	100.000000
1.580766	700.000000
1.580430	400.000000
1.580094	1100.000000
1.579759	300.000000
1.579424	0.000000
1.579088	400.000000
1.578753	-800.000000
1.578418	-400.000000
1.578084	200.000000
1.577749	100.000000
1.577415	-200.000000
1.577080	0.000000
1.576746	0.000000
1.576412	-900.000000
1.576078	600.000000
1.575745	1000.000000
1.575411	100.000000
1.575078	900.000000
1.574744	-600.000000
1.574411	1100.000000
1.574078	0.000000
1.573745	0.000000
1.573412	-700.000000
1.573080	-200.000000
1.572747	0.000000
1.572415	200.000000
1.572083	-600.000000
1.571751	-600.000000
1.571419	300.000000
1.571087	1300.000000
1.570755	900.000000
1.570424	600.000000
1.570092	1000.000000
1.569761	200.000000
1.569430	200.000000
1.569099	1000.000000
1.568768	700.000000
1.568438	600.000000
1.568107	-200.000000
1.567777	400.000000
1.567447	2000.000000
1.567117	600.000000
1.566787	700.000000
1.566457	1100.000000
1.566127	400.000000
1.565798	1000.000000
1.565468	1200.000000
1.565139	1500.000000
1.564810	1600.000000
1.564481	2800.000000
1.564152	2300.000000
1.563823	3700.000000
1.563495	2400.000000
1.563166	5200.000000
1.562838	6000.000000
1.562510	8000.000000
1.562182	9700.000000
1.561854	10900.000000
1.561526	13300.000000
1.561199	16500.000000
1.560871	20800.000000
1.560544	24700.000000
1.560217	30200.000000
1.559889	35800.000000
1.559563	44400.000000
1.559236	53400.000000
1.558909	64400.000000
1.558583	76100.000000
1.558256	91100.000000
1.557930	109300.000000
1.557604	128200.000000
1.557278	151300.000000
1.556952	176700.000000
1.556626	206700.000000
1.556301	234700.000000
1.555975	271300.000000
1.555650	311300.000000
1.555325	352900.000000
1.555000	393800.000000
1.554675	443000.000000
1.554350	488600.000000
1.554026	541900.000000
1.553701	593500.000000
1.553377	638900.000000
1.553053	687200.000000
1.552729	733400.000000
1.552405	778000.000000
1.552081	814300.000000
1.551757	848200.000000
1.551434	865100.000000
1.551110	885600.000000
1.550787	901400.000000
1.550464	904200.000000
1.550141	894900.000000
1.549818	888800.000000
1.549496	865300.000000
1.549173	847600.000000
1.548850	820700.000000
1.548528	785100.000000
1.548206	748100.000000
1.547884	707900.000000
1.547562	660900.000000
1.547240	624800.000000
1.546919	583100.000000
1.546597	537900.000000
1.546276	497800.000000
1.545955	453700.000000
1.545633	413900.000000
1.545312	380300.000000
1.544992	341900.000000
1.544671	303900.000000
1.544350	279500.000000
1.544030	251700.000000
1.543710	220600.000000
1.543389	198900.000000
1.543069	177100.000000
1.542749	156900.000000
1.542430	137100.000000
1.542110	123600.000000
1.541790	110800.000000
1.541471	98400.000000
1.541152	88400.000000
1.540833	79000.000000
1.540514	71900.000000
1.540195	64100.000000
1.539876	56800.000000
1.539558	51100.000000
1.539239	46600.000000
1.538921	42500.000000
1.538603	38100.000000
1.538285	35300.000000
1.537967	33200.000000
1.537649	29000.000000
1.537331	27600.000000
1.537014	26200.000000
1.536696	26200.000000
1.536379	23900.000000
1.536062	23000.000000
1.535745	22200.000000
1.535428	22200.000000
1.535111	23300.000000
1.534795	23200.000000
1.534478	22400.000000
1.534162	23500.000000
1.533845	23700.000000
1.533529	25400.000000
1.533213	25300.000000
1.532898	27200.000000
1.532582	27600.000000
1.532266	28200.000000
1.531951	29100.000000
1.531636	32800.000000
1.531320	34900.000000
1.531005	36700.000000
1.530690	38600.000000
1.530376	42400.000000
1.530061	45200.000000
1.529746	47100.000000
1.529432	50800.000000
1.529118	53700.000000
1.528803	58100.000000
1.528489	60400.000000
1.528176	67300.000000
1.527862	68600.000000
1.527548	75100.000000
1.527235	77700.000000
1.526921	84400.000000
1.526608	88300.000000
1.526295	95900.000000
1.525982	100600.000000
1.525669	108800.000000
1.525356	114400.000000
1.525044	121400.000000
1.524731	124300.000000
1.524419	134700.000000
1.524107	140500.000000
1.523795	148700.000000
1.523483	156200.000000
1.523171	161000.000000
1.522859	169800.000000
1.522547	177400.000000
1.522236	184200.000000
1.521925	195200.000000
1.521613	199300.000000
1.521302	208200.000000
1.520991	215200.000000
1.520681	220100.000000
1.520370	226100.000000
1.520059	230700.000000
1.519749	239400.000000
1.519439	242000.000000
1.519128	247300.000000
1.518818	254600.000000
1.518508	256800.000000
1.518199	263800.000000
1.517889	264200.000000
1.517579	267400.000000
1.517270	275200.000000
1.516961	276300.000000
1.516651	282600.000000
1.516342	280600.000000
1.516033	287100.000000
1.515725	284700.000000
1.515416	290600.000000
1.515107	295200.000000
1.514799	302200.000000
1.514491	302400.000000
1.514183	308100.000000
1.513875	311700.000000
1.513567	313400.000000
1.513259	324900.000000
1.512951	330100.000000
1.512644	337000.000000
1.512336	340900.000000
1.512029	344600.000000
1.511722	355800.000000
1.511415	356400.000000
1.511108	367800.000000
1.510801	382300.000000
1.510494	390900.000000
1.510188	393100.000000
1.509881	408500.000000
1.509575	415500.000000
1.509269	430700.000000
1.508963	445500.000000
1.508657	463900.000000
1.508351	477000.000000
1.508045	491800.000000
1.507740	514300.000000
1.507434	531700.000000
1.507129	549100.000000
1.506824	575500.000000
1.506519	598400.000000
1.506214	620000.000000
1.505909	649100.000000
1.505604	678100.000000
1.505300	711400.000000
1.504995	743000.000000
1.504691	778900.000000
1.504387	815400.000000
1.504083	849600.000000
1.503779	886000.000000
1.503475	922100.000000
1.503171	971300.000000
1.502868	1007100.000000
1.502564	1046300.000000
1.502261	1100900.000000
1.501958	1147700.000000
1.501655	1191400.000000
1.501352	1242200.000000
1.501049	1299900.000000
1.500746	1349700.000000
1.500443	1390100.000000
1.500141	1449300.000000
1.499839	1497600.000000
1.499536	1557400.000000
1.499234	1605700.000000
1.498932	1664800.000000
1.498630	1717100.000000
1.498329	1764300.000000
1.498027	1817100.000000
1.497726	1854200.000000
1.497424	1910500.000000
1.497123	1944300.000000
1.496822	1989400.000000
1.496521	2027900.000000
1.496220	2058200.000000
1.495919	2093100.000000
1.495618	2120600.000000
1.495318	2143800.000000
1.495017	2161700.000000
1.494717	2189900.000000
1.494417	2194700.000000
1.494117	2202800.000000
1.493817	2205600.000000
1.493517	2216600.000000
1.493217	2203600.000000
1.492918	2187700.000000
1.492618	2194300.000000
1.492319	2181400.000000
1.492020	2161100.000000
1.491721	2134500.000000
1.491422	2109200.000000
1.491123	2094200.000000
1.490824	2071100.000000
1.490526	2040900.000000
1.490227	2004400.000000
1.489929	1978900.000000
1.489630	1941600.000000
1.489332	1910700.000000
1.489034	1889500.000000
1.488736	1853000.000000
1.488439	1815600.000000
1.488141	1782000.000000
1.487843	1741500.000000
1.487546	1714300.000000
1.487249	1670500.000000
1.486951	1637900.000000
1.486654	1610600.000000
1.486357	1583300.000000
1.486061	1557000.000000
1.485764	1518500.000000
1.485467	1477600.000000
1.485171	1448300.000000
1.484874	1408100.000000
1.484578	1375000.000000
1.484282	1353500.000000
1.483986	1314200.000000
1.483690	1293100.000000
1.483394	1262100.000000
1.483099	1224100.000000
1.482803	1198900.000000
1.482508	1173700.000000
1.482213	1141300.000000
1.481917	1114400.000000
1.481622	1081100.000000
1.481327	1049800.000000
1.481033	1017800.000000
1.480738	992800.000000
1.480443	970200.000000
1.480149	935100.000000
1.479854	913500.000000
1.479560	889600.000000
1.479266	862200.000000
1.478972	837100.000000
1.478678	809000.000000
1.478384	787400.000000
1.478091	762700.000000
1.477797	736000.000000
1.477504	716900.000000
1.477211	696500.000000
1.476917	673000.000000
1.476624	658900.000000
1.476331	630500.000000
1.476038	617700.000000
1.475746	588200.000000
1.475453	577700.000000
1.475161	554300.000000
1.474868	533200.000000
1.474576	518600.000000
1.474284	502500.000000
1.473992	487200.000000
1.473700	466500.000000
1.473408	452900.000000
1.473116	434300.000000
1.472825	419900.000000
1.472533	405000.000000
1.472242	396600.000000
1.471951	379600.000000
1.471660	364900.000000
1.471369	355200.000000
1.471078	340800.000000
1.470787	330000.000000
1.470497	314700.000000
1.470206	306400.000000
1.469916	299800.000000
1.469625	290500.000000
1.469335	275600.000000
1.469045	270400.000000
1.468755	259900.000000
1.468465	251700.000000
1.468176	242900.000000
1.467886	234700.000000
1.467596	231200.000000
1.467307	222500.000000
1.467018	213300.000000
1.466729	208800.000000
1.466440	199900.000000
1.466151	193700.000000
1.465862	194100.000000
1.465573	184800.000000
1.465285	180000.000000
1.464996	178000.000000
1.464708	171800.000000
1.464419	167900.000000
1.464131	164100.000000
1.463843	160100.000000
1.463555	156300.000000
1.463268	152900.000000
1.462980	150900.000000
1.462692	148000.000000
1.462405	144900.000000
1.462118	143600.000000
1.461830	138400.000000
1.461543	134700.000000
1.461256	135700.000000
1.460969	132100.000000
1.460683	132100.000000
1.460396	128400.000000
1.460109	126600.000000
1.459823	122800.000000
1.459537	122700.000000
1.459250	120200.000000
1.458964	117300.000000
1.458678	114000.000000
1.458392	115900.000000
1.458107	112100.000000
1.457821	112200.000000
1.457535	108600.000000
1.457250	108800.000000
1.456965	106000.000000
1.456679	104700.000000
1.456394	100900.000000
1.456109	103600.000000
1.455824	99200.000000
1.455540	97900.000000
1.455255	96300.000000
1.454971	94500.000000
1.454686	92500.000000
1.454402	89600.000000
1.454118	87300.000000
1.453833	86100.000000
1.453550	85300.000000
1.453266	83200.000000
1.452982	81500.000000
1.452698	78300.000000
1.452415	78500.000000
1.452131	75800.000000
1.451848	75200.000000
1.451565	71000.000000
1.451282	70600.000000
1.450999	70700.000000
1.450716	69700.000000
1.450433	68500.000000
1.450150	66400.000000
1.449868	64800.000000
1.449585	62000.000000
1.449303	60600.000000
1.449021	60700.000000
1.448739	60200.000000
1.448457	56200.000000
1.448175	54800.000000
1.447893	55800.000000
1.447611	51100.000000
1.447330	52400.000000
1.447048	51000.000000
1.446767	48300.000000
1.446486	48800.000000
1.446205	46600.000000
1.445924	46700.000000
1.445643	46400.000000
1.445362	43900.000000
1.445081	41800.000000
1.444801	42500.000000
1.444520	42500.000000
1.444240	41600.000000
1.443960	40000.000000
1.443680	40000.000000
1.443400	38600.000000
1.443120	36600.000000
1.442840	37400.000000
1.442560	36500.000000
1.442280	34600.000000
1.442001	34500.000000
1.441722	33000.000000
1.441442	31900.000000
1.441163	32400.000000
1.440884	32000.000000
1.440605	29500.000000
1.440326	30500.000000
1.440048	27200.000000
1.439769	28100.000000
1.439490	27000.000000
1.439212	26800.000000
1.438934	26000.000000
1.438656	24800.000000
1.438377	24700.000000
1.438099	23100.000000
1.437822	24000.000000
1.437544	22200.000000
1.437266	22400.000000
1.436989	23200.000000
1.436711	21600.000000
1.436434	21800.000000
1.436157	20400.000000
1.435880	20700.000000
1.435603	19500.000000
1.435326	19300.000000
1.435049	19600.000000
1.434772	19600.000000
1.434496	19000.000000
1.434219	16400.000000
1.433943	16800.000000
1.433666	17800.000000
1.433390	16000.000000
1.433114	17100.000000
1.432838	16200.000000
1.432562	14200.000000
1.432287	14400.000000
1.432011	15400.000000
1.431736	14400.000000
1.431460	13100.000000
1.431185	13200.000000
1.430910	13200.000000
1.430635	13800.000000
1.430360	12100.000000
1.430085	11800.000000
1.429810	12700.000000
1.429535	11600.000000
1.429261	12100.000000
1.428986	11600.000000
1.428712	11300.000000
1.428438	11600.000000
1.428163	10300.000000
1.427889	10200.000000
1.427615	11700.000000
1.427342	10300.000000
1.427068	10400.000000
1.426794	10800.000000
1.426521	10100.000000
1.426247	10500.000000
1.425974	10100.000000
1.425701	9600.000000
1.425428	10200.000000
1.425155	10100.000000
1.424882	9300.000000
1.424609	9400.000000
1.424336	9100.000000
1.424064	9200.000000
1.423791	8600.000000
1.423519	9700.000000
1.423247	8800.000000
1.422974	7900.000000
1.422702	9600.000000
1.422430	8500.000000
1.422159	8300.000000
1.421887	9100.000000
1.421615	8400.000000
1.421344	7800.000000
1.421072	8900.000000
1.420801	7800.000000
1.420530	7900.000000
1.420259	8400.000000
1.419988	8200.000000
1.419717	8700.000000
1.419446	8600.000000
1.419175	7300.000000
1.418905	7700.000000
1.418634	7000.000000
1.418364	8400.000000
1.418093	7400.000000
1.417823	7200.000000
1.417553	6500.000000
1.417283	7100.000000
1.417013	7600.000000
1.416743	7600.000000
1.416474	6900.000000
1.416204	7000.000000
1.415935	7300.000000
1.415665	7000.000000
1.415396	6500.000000
1.415127	6000.000000
1.414858	6100.000000
1.414589	6500.000000
1.414320	6500.000000
1.414051	6500.000000
1.413783	7000.000000
1.413514	6100.000000
1.413246	6000.000000
1.412977	6400.000000
1.412709	5300.000000
1.412441	5300.000000
1.412173	5800.000000
1.411905	5500.000000
1.411637	5900.000000
1.411369	4500.000000
1.411102	6500.000000
1.410834	5300.000000
1.410567	6100.000000
1.410299	6100.000000
1.410032	5200.000000
1.409765	4900.000000
1.409498	5300.000000
1.409231	5500.000000
1.408964	5300.000000
1.408697	5300.000000
1.408431	4400.000000
1.408164	5400.000000
1.407898	4500.000000
1.407632	5400.000000
1.407365	5100.000000
1.407099	4500.000000
1.406833	5200.000000
1.406567	5400.000000
1.406301	5500.000000
1.406036	4200.000000
1.405770	4700.000000
1.405505	5000.000000
1.405239	5000.000000
1.404974	4700.000000
1.404709	5200.000000
1.404444	4500.000000
1.404178	4100.000000
1.403914	5000.000000
1.403649	6000.000000
1.403384	4900.000000
1.403119	4500.000000
1.402855	5500.000000
1.402590	4800.000000
1.402326	4300.000000
1.402062	4900.000000
1.401798	4000.000000
1.401534	4200.000000
1.401270	4200.000000
1.401006	5200.000000
1.400742	4500.000000
1.400479	5900.000000
1.400215	4800.000000
1.399952	4700.000000
1.399688	5500.000000
1.399425	5100.000000
1.399162	4900.000000
1.398899	5300.000000
1.398636	5100.000000
1.398373	4800.000000
1.398111	5900.000000
1.397848	5600.000000
1.397585	4500.000000
1.397323	3900.000000
1.397061	5400.000000
1.396798	5200.000000
1.396536	5200.000000
1.396274	5400.000000
1.396012	5800.000000
1.395750	5300.000000
1.395489	5200.000000
1.395227	4800.000000
1.394965	6300.000000
1.394704	5900.000000
1.394443	6100.000000
1.394181	4600.000000
1.393920	5600.000000
1.393659	5600.000000
1.393398	5600.000000
1.393137	6500.000000
1.392877	5200.000000
1.392616	5700.000000
1.392355	6900.000000
1.392095	5300.000000
1.391835	5700.000000
1.391574	7200.000000
1.391314	7200.000000
1.391054	7300.000000
1.390794	8200.000000
1.390534	6400.000000
1.390274	8000.000000
1.390015	6800.000000
1.389755	7400.000000
1.389495	6000.000000
1.389236	7400.000000
1.388977	7500.000000
1.388718	7900.000000
1.388458	7800.000000
1.388199	7900.000000
1.387941	9200.000000
1.387682	8200.000000
1.387423	9100.000000
1.387164	8200.000000
1.386906	10200.000000
1.386647	9700.000000
1.386389	9400.000000
1.386131	10000.000000
1.385873	11100.000000
1.385615	11000.000000
1.385357	9800.000000
1.385099	9400.000000
1.384841	11600.000000
1.384583	12500.000000
1.384326	11400.000000
1.384068	12300.000000
1.383811	12200.000000
