Wavelength (nm);Intensity Source
341.394;5.469
341.768;5.713
342.142;5.566
342.516;5.444
342.890;5.420
343.264;5.566
343.638;5.591
344.012;5.664
344.386;5.591
344.760;5.762
345.133;5.469
345.507;5.664
345.881;5.566
346.255;5.420
346.628;5.444
347.002;5.591
347.376;5.713
347.749;5.566
348.123;5.811
348.496;5.762
348.870;5.688
349.243;5.786
349.617;5.737
349.990;5.713
350.363;5.957
350.737;5.762
351.110;5.664
351.483;5.786
351.857;5.591
352.230;5.835
352.603;5.835
352.976;5.786
353.349;5.664
353.722;5.615
354.095;5.786
354.468;5.811
354.841;5.713
355.214;5.713
355.587;5.786
355.960;5.688
356.333;5.786
356.706;5.835
357.079;5.786
357.451;5.737
357.824;5.933
358.197;5.737
358.569;5.884
358.942;5.933
359.315;5.835
359.687;5.688
360.060;5.835
360.432;5.811
360.805;5.786
361.177;5.688
361.550;5.908
361.922;5.737
362.294;5.811
362.667;5.835
363.039;5.811
363.411;5.615
363.783;5.908
364.156;5.762
364.528;5.713
364.900;5.713
365.272;5.786
365.644;5.713
366.016;5.884
366.388;5.737
366.760;5.713
367.132;5.908
367.504;5.664
367.876;5.786
368.247;5.933
368.619;5.566
368.991;5.981
369.363;5.835
369.734;5.933
370.106;5.762
370.478;5.737
370.849;6.055
371.221;5.859
371.592;5.811
371.964;5.908
372.335;5.859
372.707;5.737
373.078;5.811
373.450;5.835
373.821;5.737
374.192;6.006
374.564;5.908
374.935;5.811
375.306;5.811
375.677;6.030
376.048;5.908
376.419;5.493
376.790;5.786
377.162;5.786
377.533;5.713
377.903;5.811
378.274;5.786
378.645;5.884
379.016;5.835
379.387;5.933
379.758;5.762
380.129;5.981
380.499;5.737
380.870;5.908
381.241;5.859
381.611;5.957
381.982;5.908
382.353;5.786
382.723;5.786
383.094;5.835
383.464;6.079
383.835;5.859
384.205;5.811
384.575;5.835
384.946;5.908
385.316;5.908
385.686;5.908
386.057;5.835
386.427;5.811
386.797;5.811
387.167;5.811
387.537;5.811
387.907;5.859
388.277;5.884
388.647;5.957
389.017;6.006
389.387;5.957
389.757;5.713
390.127;5.908
390.497;5.957
390.867;5.908
391.237;5.835
391.606;5.859
391.976;5.981
392.346;5.884
392.715;5.933
393.085;6.055
393.455;5.884
393.824;5.859
394.194;5.835
394.563;5.957
394.933;5.933
395.302;5.835
395.671;5.859
396.041;6.030
396.410;5.957
396.779;5.811
397.149;6.006
397.518;5.981
397.887;5.737
398.256;5.957
398.625;5.884
398.994;5.884
399.363;5.957
399.732;5.957
400.101;6.006
400.470;5.908
400.839;5.859
401.208;5.908
401.577;5.908
401.946;5.933
402.315;5.859
402.683;5.981
403.052;5.859
403.421;5.762
403.789;5.933
404.158;5.908
404.526;5.762
404.895;5.908
405.263;5.981
405.632;5.713
406.000;6.055
406.369;5.957
406.737;5.859
407.105;5.884
407.474;5.933
407.842;5.908
408.210;5.908
408.578;6.030
408.947;6.030
409.315;5.884
409.683;5.884
410.051;6.055
410.419;5.859
410.787;5.957
411.155;5.811
411.523;5.933
411.891;5.908
412.259;5.859
412.626;5.957
412.994;5.957
413.362;6.030
413.730;5.908
414.097;5.908
414.465;5.957
414.833;6.030
415.200;5.908
415.568;5.957
415.935;6.055
416.303;6.055
416.670;6.055
417.038;5.884
417.405;6.104
417.772;5.933
418.140;6.006
418.507;6.030
418.874;6.104
419.241;6.030
419.608;5.981
419.976;6.177
420.343;5.981
420.710;5.884
421.077;5.957
421.444;5.957
421.811;6.006
422.178;6.152
422.545;6.104
422.911;5.762
423.278;5.981
423.645;6.079
424.012;6.055
424.378;5.859
424.745;5.957
425.112;5.908
425.478;6.177
425.845;5.908
426.212;6.079
426.578;6.104
426.945;6.152
427.311;6.055
427.677;6.006
428.044;6.055
428.410;6.055
428.776;5.859
429.143;6.030
429.509;5.811
429.875;5.884
430.241;5.737
430.607;6.030
430.973;6.079
431.339;6.055
431.705;6.006
432.071;6.079
432.437;5.933
432.803;6.079
433.169;6.128
433.535;5.811
433.901;5.981
434.267;6.104
434.632;6.055
434.998;6.030
435.364;6.152
435.729;6.104
436.095;6.104
436.461;6.055
436.826;5.957
437.192;5.981
437.557;6.055
437.922;6.250
438.288;6.104
438.653;5.811
439.018;6.079
439.384;6.201
439.749;6.104
440.114;6.055
440.479;6.177
440.845;5.908
441.210;6.055
441.575;6.055
441.940;6.104
442.305;6.055
442.670;6.104
443.035;6.128
443.400;6.128
443.764;5.957
444.129;5.811
444.494;6.055
444.859;6.055
445.223;5.884
445.588;6.104
445.953;6.201
446.317;6.030
446.682;5.981
447.046;5.981
447.411;6.030
447.775;6.030
448.140;6.128
448.504;6.006
448.869;6.177
449.233;6.128
449.597;6.104
449.961;6.104
450.326;6.128
450.690;5.981
451.054;6.250
451.418;6.055
451.782;6.226
452.146;6.079
452.510;6.152
452.874;6.104
453.238;6.152
453.602;6.250
453.966;5.981
454.330;6.128
454.693;6.128
455.057;6.030
455.421;6.104
455.785;6.152
456.148;6.274
456.512;6.128
456.875;6.104
457.239;6.226
457.602;6.201
457.966;6.104
458.329;6.177
458.693;6.494
459.056;6.152
459.419;6.079
459.783;6.177
460.146;6.250
460.509;6.250
460.872;6.201
461.235;6.201
461.598;6.152
461.961;6.128
462.325;6.128
462.687;6.250
463.050;6.104
463.413;6.299
463.776;6.006
464.139;6.104
464.502;6.299
464.865;6.323
465.227;6.079
465.590;6.250
465.953;6.372
466.315;6.030
466.678;6.006
467.041;6.226
467.403;5.981
467.765;6.030
468.128;6.055
468.490;6.104
468.853;6.104
469.215;6.348
469.577;6.055
469.940;6.177
470.302;6.201
470.664;6.250
471.026;6.226
471.388;6.372
471.750;6.348
472.112;6.250
472.474;6.226
472.836;6.250
473.198;6.372
473.560;6.274
473.922;6.274
474.284;6.079
474.646;6.030
475.007;6.470
475.369;6.421
475.731;6.396
476.092;6.299
476.454;6.323
476.816;6.421
477.177;6.445
477.539;6.226
477.900;6.348
478.261;6.470
478.623;6.372
478.984;6.519
479.345;6.396
479.707;6.421
480.068;6.445
480.429;6.494
480.790;6.396
481.151;6.567
481.512;6.641
481.874;6.592
482.235;6.592
482.595;6.543
482.956;6.372
483.317;6.689
483.678;6.738
484.039;6.689
484.400;6.665
484.761;6.567
485.121;6.519
485.482;6.641
485.843;6.714
486.203;6.445
486.564;6.787
486.924;6.787
487.285;6.860
487.645;6.665
488.006;6.763
488.366;6.689
488.726;6.616
489.087;6.909
489.447;6.836
489.807;6.812
490.167;6.860
490.527;6.909
490.888;6.958
491.248;6.885
491.608;6.738
491.968;7.080
492.328;6.909
492.688;6.860
493.047;6.934
493.407;6.714
493.767;7.056
494.127;7.227
494.487;7.080
494.846;7.129
495.206;6.958
495.566;6.982
495.925;7.202
496.285;7.251
496.644;7.373
497.004;7.129
497.363;7.349
497.723;7.349
498.082;7.349
498.441;7.520
498.800;7.495
499.160;7.324
499.519;7.446
499.878;7.593
500.237;7.324
500.596;7.446
500.955;7.617
501.314;7.690
501.673;7.544
502.032;7.617
502.391;7.642
502.750;7.617
503.109;7.837
503.468;7.764
503.826;7.666
504.185;7.715
504.544;7.959
504.903;8.032
505.261;8.350
505.620;8.447
505.978;8.472
506.337;8.154
506.695;8.423
507.054;8.545
507.412;8.716
507.770;8.350
508.129;8.960
508.487;8.887
508.845;9.009
509.203;9.326
509.561;9.375
509.919;9.302
510.278;9.277
510.636;9.448
510.994;9.399
511.352;9.595
511.709;9.668
512.067;9.888
512.425;9.839
512.783;9.937
513.141;10.034
513.498;10.327
513.856;10.229
514.214;10.352
514.571;11.035
514.929;11.084
515.287;10.986
515.644;10.938
516.001;11.328
516.359;11.597
516.716;11.206
517.074;11.353
517.431;12.109
517.788;11.523
518.145;12.158
518.503;12.915
518.860;13.208
519.217;12.842
519.574;13.062
519.931;13.208
520.288;13.281
520.645;14.014
521.002;14.355
521.359;14.429
521.715;15.601
522.072;15.186
522.429;16.699
522.786;16.968
523.142;16.919
523.499;16.479
523.856;18.677
524.212;19.287
524.569;20.117
524.925;26.611
525.282;52.319
525.638;81.836
525.995;74.243
526.351;60.645
526.707;51.709
527.063;43.457
527.420;40.356
527.776;39.966
528.132;38.354
528.488;39.746
528.844;44.409
529.200;55.444
529.556;65.210
529.912;85.181
530.268;99.976
530.624;99.976
530.980;99.976
531.335;99.976
531.691;99.976
532.047;99.976
532.403;99.976
532.758;99.976
533.114;99.976
533.469;99.976
533.825;99.976
534.180;99.976
534.536;99.976
534.891;99.976
535.247;85.718
535.602;40.430
535.957;35.913
536.312;32.129
536.668;28.564
537.023;23.682
537.378;22.192
537.733;20.190
538.088;18.579
538.443;19.604
538.798;17.578
539.153;16.968
539.508;15.894
539.863;15.039
540.217;14.648
540.572;13.525
540.927;13.794
541.282;14.087
541.636;13.525
541.991;13.232
542.345;14.233
542.700;12.744
543.054;11.963
543.409;12.598
543.763;12.695
544.118;12.256
544.472;11.157
544.826;10.742
545.180;11.230
545.535;11.084
545.889;10.791
546.243;10.571
546.597;10.034
546.951;10.278
547.305;10.010
547.659;9.961
548.013;10.376
548.367;9.375
548.721;9.155
549.075;8.936
549.428;9.131
549.782;8.984
550.136;9.058
550.489;8.545
550.843;8.594
551.197;8.325
551.550;8.276
551.904;8.203
552.257;8.325
552.611;8.179
552.964;8.057
553.317;7.812
553.671;8.179
554.024;7.812
554.377;7.715
554.730;7.715
555.083;7.373
555.436;7.397
555.789;7.397
556.143;7.324
556.495;7.227
556.848;7.031
557.201;7.031
557.554;6.982
557.907;7.080
558.260;6.689
558.612;6.934
558.965;6.860
559.318;6.812
559.670;6.885
560.023;6.934
560.376;6.689
560.728;6.665
561.080;6.421
561.433;6.445
561.785;6.543
562.138;6.299
562.490;6.567
562.842;6.396
563.194;6.323
563.546;6.299
563.899;6.323
564.251;6.030
564.603;6.177
564.955;6.201
565.307;6.030
565.659;6.128
566.011;6.152
566.362;6.055
566.714;5.981
567.066;6.079
567.418;5.957
567.769;5.981
568.121;5.933
568.473;5.981
568.824;5.957
569.176;5.859
569.527;5.566
569.879;5.713
570.230;5.786
570.581;5.786
570.933;5.542
571.284;5.835
571.635;5.859
571.986;5.811
572.337;5.640
572.689;5.859
573.040;5.688
573.391;5.786
573.742;5.688
574.093;5.518
574.444;5.713
574.794;5.664
575.145;5.518
575.496;5.518
575.847;5.566
576.197;5.396
576.548;5.591
576.899;5.444
577.249;5.444
577.600;5.518
577.950;5.591
578.301;5.396
578.651;5.542
579.002;5.371
579.352;5.371
579.702;5.542
580.052;5.420
580.403;5.298
580.753;5.371
581.103;5.249
581.453;5.444
581.803;5.322
582.153;5.298
582.503;5.273
582.853;5.176
583.203;5.469
583.553;5.298
583.903;5.298
584.252;5.103
584.602;5.347
584.952;5.273
585.301;5.371
585.651;5.273
586.000;5.127
586.350;5.225
586.699;5.176
587.049;5.298
587.398;5.273
587.748;5.249
588.097;5.200
588.446;5.200
588.795;5.225
589.145;5.200
589.494;5.200
589.843;5.225
590.192;5.298
590.541;5.249
590.890;5.273
591.239;5.298
591.588;5.029
591.936;5.225
592.285;5.176
592.634;5.029
592.983;5.103
593.331;5.078
593.680;5.249
594.029;5.078
594.377;5.151
594.726;5.200
595.074;5.078
595.423;5.078
595.771;5.103
596.119;5.103
596.468;5.249
596.816;5.176
597.164;5.151
597.512;5.103
597.860;5.029
598.208;5.200
598.557;5.078
598.905;5.078
599.252;5.127
599.600;5.103
599.948;4.956
600.296;5.127
600.644;5.103
600.992;5.298
601.339;5.005
601.687;5.127
602.035;5.005
602.382;5.200
602.730;5.078
603.077;4.956
603.425;4.980
603.772;5.103
604.120;4.980
604.467;5.127
604.814;5.005
605.161;5.054
605.509;5.029
605.856;5.103
606.203;5.029
606.550;5.054
606.897;5.103
607.244;5.103
607.591;5.005
607.938;4.932
608.285;5.029
608.632;4.761
608.978;4.980
609.325;5.054
609.672;5.103
610.019;4.932
610.365;5.005
610.712;4.932
611.058;4.980
611.405;4.956
611.751;5.005
612.098;5.103
612.444;4.907
612.790;4.980
613.137;4.858
613.483;5.005
613.829;5.054
614.175;4.956
614.521;4.980
614.867;4.907
615.213;4.956
615.559;4.834
615.905;4.858
616.251;4.834
616.597;5.005
616.943;4.932
617.288;4.858
617.634;4.980
617.980;4.980
618.326;5.005
618.671;4.883
619.017;4.907
619.362;4.956
619.708;5.151
620.053;4.883
620.398;4.785
620.744;4.932
621.089;4.883
621.434;5.029
621.780;4.980
622.125;4.883
622.470;4.956
622.815;4.883
623.160;4.761
623.505;4.907
623.850;4.932
624.195;4.834
624.540;4.858
624.884;5.005
625.229;4.858
625.574;4.956
625.919;5.005
626.263;4.980
626.608;5.005
626.952;4.932
627.297;4.932
627.641;5.054
627.986;4.980
628.330;5.054
628.675;5.078
629.019;5.103
629.363;5.176
629.707;5.176
630.052;5.444
630.396;5.786
630.740;6.226
631.084;6.958
631.428;8.203
631.772;9.253
632.116;10.889
632.460;12.671
632.803;14.380
633.147;15.967
633.491;17.236
633.835;18.262
634.178;18.433
634.522;17.749
634.865;17.090
635.209;16.162
635.552;15.527
635.896;13.550
636.239;12.793
636.583;11.670
636.926;10.547
637.269;9.595
637.612;8.911
637.956;8.301
638.299;8.057
638.642;7.568
638.985;7.495
639.328;6.982
639.671;6.860
640.014;6.665
640.357;6.665
640.699;6.299
641.042;6.152
641.385;5.981
641.728;6.104
642.070;5.933
642.413;5.884
642.755;5.566
643.098;5.566
643.440;5.347
643.783;5.469
644.125;5.396
644.468;5.396
644.810;5.371
645.152;5.200
645.494;5.200
645.837;5.176
646.179;5.151
646.521;5.249
646.863;5.029
647.205;5.078
647.547;5.078
647.889;5.225
648.230;5.249
648.572;5.200
648.914;5.273
649.256;5.200
649.597;5.176
649.939;5.396
650.281;5.444
650.622;5.396
650.964;5.518
651.305;5.615
651.647;5.713
651.988;6.128
652.329;6.152
652.671;6.421
653.012;6.665
653.353;6.738
653.694;6.860
654.035;7.471
654.376;7.568
654.717;7.910
655.058;8.447
655.399;8.789
655.740;9.180
656.081;9.668
656.422;9.814
656.763;10.156
657.103;10.376
657.444;11.133
657.785;11.133
658.125;11.475
658.466;11.646
658.806;12.183
659.147;12.231
659.487;12.109
659.827;12.378
660.168;12.354
660.508;12.500
660.848;12.109
661.188;12.329
661.528;12.305
661.869;12.085
662.209;11.768
662.549;11.548
662.889;11.353
663.228;11.157
663.568;11.279
663.908;10.718
664.248;10.522
664.588;10.449
664.927;10.010
665.267;9.961
665.607;9.570
665.946;9.375
666.286;9.277
666.625;8.838
666.965;8.569
667.304;8.667
667.643;8.423
667.982;8.130
668.322;8.154
668.661;8.008
669.000;7.788
669.339;7.324
669.678;7.397
670.017;7.153
670.356;6.885
670.695;7.031
671.034;6.665
671.373;6.787
671.712;6.543
672.050;6.567
672.389;6.152
672.728;6.348
673.066;6.177
673.405;6.030
673.743;5.957
674.082;5.933
674.420;5.908
674.759;5.859
675.097;5.859
675.435;5.981
675.773;5.859
676.112;5.908
676.450;5.615
676.788;5.713
677.126;5.981
677.464;5.884
677.802;5.981
678.140;5.908
678.478;5.957
678.816;6.006
679.153;6.006
679.491;6.201
679.829;6.274
680.167;6.323
680.504;6.543
680.842;6.982
681.179;7.373
681.517;7.471
681.854;7.544
682.191;8.203
682.529;8.398
682.866;8.911
683.203;9.009
683.541;9.570
683.878;10.229
684.215;10.425
684.552;10.815
684.889;11.157
685.226;11.865
685.563;12.207
685.900;12.695
686.237;13.232
686.573;13.232
686.910;13.623
687.247;14.233
687.583;14.380
687.920;14.722
688.257;14.990
688.593;15.308
688.930;15.576
689.266;15.308
689.602;15.918
689.939;15.527
690.275;16.064
690.611;15.991
690.947;15.625
691.284;15.674
691.620;15.430
691.956;15.479
692.292;15.649
692.628;14.966
692.964;15.039
693.299;14.673
693.635;14.380
693.971;14.087
694.307;14.038
694.642;13.770
694.978;13.135
695.314;13.062
695.649;12.427
695.985;12.402
696.320;11.841
696.656;11.328
696.991;11.035
697.326;10.840
697.662;10.620
697.997;10.181
698.332;9.985
698.667;9.521
699.002;9.253
699.337;8.789
699.672;8.789
700.007;8.228
700.342;7.935
700.677;8.032
701.012;7.788
701.347;7.788
701.681;7.275
702.016;7.104
702.351;6.958
702.685;6.860
703.020;6.885
703.354;6.567
703.689;6.543
704.023;6.201
704.357;6.250
704.692;6.006
705.026;6.055
705.360;5.908
705.694;5.859
706.028;5.835
706.362;5.835
706.696;5.737
707.030;5.591
707.364;5.786
707.698;5.566
708.032;5.664
708.366;5.347
708.700;5.273
709.033;5.493
709.367;5.322
709.700;5.322
710.034;5.322
710.368;5.298
710.701;5.371
711.034;5.127
711.368;5.151
711.701;5.029
712.034;5.078
712.368;5.298
712.701;5.005
713.034;5.127
713.367;5.273
713.700;5.127
714.033;5.176
714.366;5.103
714.699;5.322
715.032;5.273
715.364;5.225
715.697;5.469
716.030;5.786
716.363;5.762
716.695;5.981
717.028;6.177
717.360;6.860
717.693;7.227
718.025;7.715
718.358;8.130
718.690;8.691
719.022;9.790
719.354;10.498
719.687;11.450
720.019;12.207
720.351;12.891
720.683;14.014
721.015;14.771
721.347;15.723
721.679;16.309
722.011;17.480
722.342;17.969
722.674;18.604
723.006;18.872
723.338;19.141
723.669;19.458
724.001;19.238
724.332;19.092
724.664;18.848
724.995;18.384
725.327;17.603
725.658;16.846
725.989;16.260
726.320;15.649
726.652;14.990
726.983;14.575
727.314;13.916
727.645;12.988
727.976;12.500
728.307;11.694
728.638;11.108
728.969;10.449
729.300;10.059
729.630;9.155
729.961;8.447
730.292;8.496
730.622;7.935
730.953;7.251
731.283;7.178
731.614;6.787
731.944;6.519
732.275;6.201
732.605;6.055
732.935;5.957
733.266;5.713
733.596;5.566
733.926;5.615
734.256;5.371
734.586;5.151
734.916;5.396
735.246;5.225
735.576;5.249
735.906;4.980
736.236;5.103
736.565;5.176
736.895;5.273
737.225;5.200
737.554;5.469
737.884;5.737
738.214;5.762
738.543;6.226
738.872;6.616
739.202;7.080
739.531;7.593
739.860;8.203
740.190;9.204
740.519;10.205
740.848;11.401
741.177;12.354
741.506;13.550
741.835;14.502
742.164;15.405
742.493;16.602
742.822;17.334
743.151;18.115
743.479;18.555
743.808;18.555
744.137;18.555
744.465;18.311
744.794;17.432
745.122;16.895
745.451;15.942
745.779;14.844
746.108;13.623
746.436;12.695
746.764;11.768
747.093;10.864
747.421;9.814
747.749;9.106
748.077;8.130
748.405;7.715
748.733;7.056
749.061;6.592
749.389;6.299
749.717;5.835
750.044;5.542
750.372;5.542
750.700;5.298
751.027;5.127
751.355;5.127
751.683;5.005
752.010;4.956
752.338;4.834
752.665;4.785
752.992;4.810
753.320;4.712
753.647;4.834
753.974;4.736
754.301;4.687
754.628;4.712
754.955;4.663
755.282;4.834
755.609;4.663
755.936;4.639
756.263;4.614
756.590;4.590
756.917;4.736
757.243;4.687
757.570;4.663
757.897;4.712
758.223;4.810
758.550;4.614
758.876;4.736
759.203;4.663
759.529;4.492
759.855;4.712
760.182;4.614
760.508;4.639
760.834;4.687
761.160;4.834
761.486;4.639
761.812;4.565
762.138;4.614
762.464;4.810
762.790;4.565
763.116;4.346
763.442;4.541
763.767;4.663
764.093;4.639
764.419;4.687
764.744;4.736
765.070;4.785
765.395;4.639
765.721;4.663
766.046;4.810
766.372;4.565
766.697;4.663
767.022;4.687
767.347;4.541
767.672;4.541
767.998;4.541
768.323;4.687
768.648;4.639
768.973;4.541
769.297;4.639
769.622;4.614
769.947;4.614
770.272;4.736
770.597;4.687
770.921;4.639
771.246;4.663
771.570;4.614
771.895;4.639
772.219;4.541
772.544;4.590
772.868;4.419
773.192;4.541
773.517;4.541
773.841;4.541
774.165;4.736
774.489;4.614
774.813;4.541
775.137;4.639
775.461;4.614
775.785;4.492
776.109;4.565
776.433;4.614
776.756;4.590
777.080;4.517
777.404;4.614
777.727;4.614
778.051;4.492
778.374;4.565
778.698;4.590
779.021;4.712
779.345;4.639
779.668;4.565
779.991;4.663
780.315;4.590
780.638;4.468
780.961;4.541
781.284;4.565
781.607;4.419
781.930;4.565
782.253;4.590
782.576;4.590
782.898;4.614
783.221;4.614
783.544;4.614
783.867;4.541
784.189;4.663
784.512;4.687
784.834;4.565
785.157;4.590
785.479;4.614
785.801;4.517
786.124;4.590
786.446;4.541
786.768;4.687
787.090;4.565
787.412;4.590
787.735;4.590
788.057;4.541
788.379;4.492
788.700;4.492
789.022;4.663
789.344;4.541
789.666;4.517
789.988;4.517
790.309;4.614
790.631;4.517
790.952;4.517
791.274;4.224
791.595;4.590
791.917;4.395
792.238;4.468
792.559;4.614
792.881;4.639
793.202;4.517
793.523;4.565
793.844;4.395
794.165;4.541
794.486;4.517
794.807;4.468
795.128;4.517
795.449;4.565
795.770;4.492
796.090;4.590
796.411;4.590
796.732;4.614
797.052;4.419
797.373;4.492
797.693;4.614
798.014;4.492
798.334;4.565
798.655;4.614
798.975;4.565
799.295;4.565
799.615;4.517
799.935;4.687
800.256;4.468
800.576;4.614
800.896;4.590
801.215;4.468
801.535;4.736
801.855;4.541
802.175;4.614
802.495;4.395
802.814;4.639
803.134;4.419
803.454;4.663
803.773;4.614
804.093;4.541
804.412;4.517
804.731;4.565
805.051;4.492
805.370;4.687
805.689;4.541
806.008;4.443
806.328;4.517
806.647;4.492
806.966;4.614
807.285;4.517
807.604;4.565
807.922;4.565
808.241;4.443
808.560;4.590
808.879;4.639
809.197;4.687
809.516;4.517
809.834;4.687
810.153;4.517
810.471;4.565
810.790;4.639
811.108;4.565
811.427;4.687
811.745;4.639
812.063;4.517
812.381;4.663
812.699;4.639
813.017;4.541
813.335;4.736
813.653;4.810
813.971;4.565
814.289;4.614
814.607;4.687
814.924;4.590
815.242;4.736
815.560;4.687
815.877;4.761
816.195;4.614
816.512;4.687
816.830;4.590
817.147;4.810
817.464;4.712
817.782;4.810
818.099;4.932
818.416;4.907
818.733;4.956
819.050;4.980
819.367;5.176
819.684;5.151
820.001;5.225
820.318;5.396
820.635;5.371
820.952;5.640
821.268;5.762
821.585;5.957
821.902;6.079
822.218;6.250
822.535;6.226
822.851;6.567
823.167;6.714
823.484;6.982
823.800;7.202
824.116;7.593
824.432;7.666
824.749;7.935
825.065;8.179
825.381;8.521
825.697;8.545
826.013;8.618
826.328;8.960
826.644;9.204
826.960;9.277
827.276;9.668
827.591;9.424
827.907;9.570
828.223;9.644
828.538;10.010
828.854;10.254
829.169;10.034
829.484;10.083
829.800;9.814
830.115;9.766
830.430;10.132
830.745;10.010
831.060;10.010
831.375;9.741
831.690;9.839
832.005;9.937
832.320;9.595
832.635;9.546
832.950;9.448
833.264;9.473
833.579;9.546
833.894;9.277
834.208;9.351
834.523;8.960
834.837;8.911
835.152;8.984
835.466;8.813
835.780;8.765
836.095;8.594
836.409;8.643
836.723;8.325
837.037;8.154
837.351;8.081
837.665;8.081
837.979;8.081
838.293;7.739
838.607;7.422
838.921;7.617
839.234;7.397
839.548;7.178
839.862;7.275
840.175;7.056
840.489;6.836
840.802;6.885
841.116;6.665
841.429;6.665
841.742;6.616
842.055;6.445
842.369;6.372
842.682;6.323
842.995;6.323
843.308;6.592
843.621;6.152
843.934;6.006
844.247;5.981
844.560;6.055
844.872;5.933
845.185;5.859
845.498;5.786
845.810;5.908
846.123;5.542
846.435;5.737
846.748;5.615
847.060;5.664
847.373;5.469
847.685;5.640
847.997;5.518
848.309;5.493
848.622;5.371
848.934;5.103
849.246;5.298
849.558;5.249
849.870;5.322
850.181;5.347
850.493;5.127
850.805;5.176
851.117;5.225
851.428;5.078
851.740;5.103
852.052;5.176
852.363;4.907
852.675;4.810
852.986;5.078
853.297;4.980
853.609;4.810
853.920;5.029
854.231;4.907
854.542;4.956
854.853;4.907
855.164;4.883
855.475;4.932
855.786;4.980
856.097;4.956
856.408;4.785
856.719;4.810
857.029;4.858
857.340;4.761
857.650;4.736
857.961;4.712
858.272;4.736
858.582;4.736
858.892;4.858
859.203;4.712
859.513;4.736
859.823;4.834
860.133;4.736
860.443;4.712
860.754;4.834
861.064;4.761
861.373;4.687
861.683;4.736
861.993;4.687
862.303;4.687
862.613;4.492
862.922;4.590
863.232;4.687
863.542;4.736
863.851;4.590
864.161;4.614
864.470;4.541
864.779;4.419
865.089;4.663
865.398;4.663
865.707;4.565
866.016;4.761
866.325;4.687
866.634;4.517
866.943;4.614
867.252;4.590
867.561;4.932
867.870;4.590
868.179;4.639
868.488;4.614
868.796;4.639
869.105;4.639
869.413;4.565
869.722;4.663
870.030;4.590
870.339;4.517
870.647;4.639
870.955;4.492
871.264;4.590
871.572;4.443
871.880;4.761
872.188;4.639
872.496;4.517
872.804;4.590
873.112;4.565
873.420;4.468
873.727;4.590
874.035;4.565
874.343;4.395
874.650;4.541
874.958;4.663
875.266;4.517
875.573;4.614
875.880;4.517
876.188;4.541
876.495;4.736
876.802;4.517
877.110;4.492
877.417;4.614
877.724;4.517
878.031;4.541
878.338;4.565
878.645;4.517
878.952;4.492
879.258;4.590
879.565;4.541
879.872;4.614
880.179;4.541
880.485;4.468
880.792;4.468
881.098;4.565
881.405;4.541
881.711;4.468
882.017;4.517
882.324;4.468
882.630;4.590
882.936;4.541
883.242;4.541
883.548;4.614
883.854;4.712
884.160;4.517
884.466;4.541
884.772;4.517
885.078;4.541
885.383;4.395
885.689;4.541
885.995;4.614
886.300;4.468
886.606;4.590
886.911;4.492
887.216;4.614
887.522;4.663
887.827;4.687
888.132;4.346
888.437;4.541
888.743;4.614
889.048;4.492
889.353;4.492
889.658;4.395
889.962;4.541
890.267;4.565
890.572;4.565
890.877;4.590
891.182;4.687
891.486;4.541
891.791;4.517
892.095;4.565
892.400;4.590
892.704;4.517
893.008;4.590
893.313;4.590
893.617;4.419
893.921;4.419
894.225;4.492
894.529;4.492
894.833;4.419
895.137;4.443
895.441;4.419
895.745;4.492
896.049;4.687
896.353;4.565
896.656;4.590
896.960;4.443
897.263;4.419
897.567;4.468
897.870;4.590
898.174;4.468
898.477;4.468
898.780;4.590
899.084;4.492
899.387;4.614
899.690;4.517
899.993;4.468
900.296;4.468
900.599;4.370
900.902;4.541
901.205;4.517
901.508;4.419
901.810;4.639
902.113;4.565
902.416;4.541
902.718;4.468
903.021;4.541
903.323;4.468
903.626;4.517
903.928;4.419
904.230;4.443
904.533;4.492
904.835;4.639
905.137;4.614
905.439;4.590
905.741;4.419
906.043;4.541
906.345;4.443
906.647;4.541
906.948;4.517
907.250;4.370
907.552;4.419
907.853;4.565
908.155;4.492
908.457;4.395
908.758;4.468
909.059;4.541
909.361;4.565
909.662;4.565
909.963;4.565
910.264;4.370
910.566;4.541
910.867;4.517
911.168;4.443
911.469;4.541
911.769;4.858
912.070;4.541
912.371;4.419
912.672;4.443
912.972;4.443
913.273;4.565
913.574;4.468
913.874;4.492
914.175;4.541
914.475;4.492
914.775;4.419
915.076;4.492
915.376;4.419
915.676;4.541
915.976;4.541
916.276;4.541
916.576;4.468
916.876;4.517
917.176;4.590
917.476;4.541
917.776;4.590
918.075;4.565
918.375;4.517
918.675;4.492
918.974;4.419
919.274;4.468
919.573;4.468
919.872;4.346
920.172;4.346
920.471;4.443
920.770;4.541
921.069;4.370
921.368;4.565
921.667;4.565
921.966;4.443
922.265;4.419
922.564;4.443
922.863;4.443
923.162;4.395
923.460;4.395
923.759;4.565
924.058;4.541
924.356;4.541
924.655;4.565
924.953;4.541
925.251;4.443
925.550;4.468
925.848;4.370
926.146;4.492
926.444;4.468
926.742;4.370
927.040;4.468
927.338;4.395
927.636;4.517
927.934;4.541
928.232;4.443
928.530;4.614
928.827;4.468
929.125;4.468
929.422;4.590
929.720;4.468
930.017;4.541
930.315;4.517
930.612;4.492
930.909;4.468
931.207;4.492
931.504;4.565
931.801;4.370
932.098;4.639
932.395;4.468
932.692;4.468
932.989;4.419
933.286;4.541
933.582;4.541
933.879;4.468
934.176;4.565
934.472;4.565
934.769;4.419
935.065;4.541
935.362;4.443
935.658;4.468
935.954;4.419
936.251;4.443
936.547;4.443
936.843;4.541
937.139;4.468
937.435;4.468
937.731;4.419
938.027;4.517
938.323;4.419
938.618;4.395
938.914;4.395
939.210;4.492
939.505;4.468
939.801;4.468
940.097;4.468
940.392;4.443
940.687;4.419
940.983;4.370
941.278;4.395
941.573;4.370
941.868;4.565
942.163;4.443
942.458;4.443
942.753;4.395
943.048;4.443
943.343;4.370
943.638;4.346
943.933;4.663
944.227;4.541
944.522;4.565
944.817;4.565
945.111;4.492
945.406;4.492
945.700;4.468
945.994;4.468
946.289;4.468
946.583;4.419
946.877;4.443
947.171;4.370
947.465;4.468
947.759;4.590
948.053;4.517
948.347;4.565
948.641;4.639
948.935;4.297
949.228;4.419
949.522;4.517
949.816;4.492
950.109;4.541
950.403;4.468
950.696;4.443
950.989;4.785
951.283;4.517
951.576;4.468
951.869;4.346
952.162;4.492
952.455;4.590
952.748;4.443
953.041;4.419
953.334;4.419
953.627;4.517
953.920;4.541
954.213;4.443
954.505;4.468
954.798;4.517
955.090;4.541
955.383;4.492
955.675;4.443
955.968;4.492
956.260;4.443
956.552;4.468
956.844;4.443
957.137;4.468
957.429;4.468
957.721;4.419
958.013;4.517
958.305;4.370
958.596;4.492
958.888;4.443
959.180;4.492
959.472;4.492
959.763;4.468
960.055;4.565
960.346;4.346
960.638;4.443
960.929;4.346
961.220;4.468
961.512;4.541
961.803;4.492
962.094;4.517
962.385;4.517
962.676;4.443
962.967;4.419
963.258;4.443
963.549;4.443
963.840;4.541
964.130;4.419
964.421;4.395
964.712;4.517
965.002;4.419
965.293;4.492
965.583;4.492
965.874;4.395
966.164;4.468
966.454;4.395
966.744;4.443
967.034;4.370
967.325;4.590
967.615;4.492
967.905;4.395
968.194;4.517
968.484;4.492
968.774;4.468
969.064;4.517
969.353;4.492
969.643;4.492
969.933;4.492
970.222;4.419
970.512;4.468
970.801;4.395
971.090;4.468
971.380;4.492
971.669;4.517
971.958;4.541
972.247;4.492
972.536;4.443
972.825;4.517
973.114;4.443
973.403;4.541
973.691;4.565
973.980;4.541
974.269;4.346
974.558;4.492
974.846;4.517
975.135;4.395
975.423;4.468
975.711;4.370
976.000;4.419
976.288;4.468
976.576;4.468
976.864;4.468
977.152;4.346
977.440;4.370
977.728;4.443
978.016;4.517
978.304;4.492
978.592;4.395
978.880;4.395
979.167;4.590
979.455;4.517
979.742;4.370
980.030;4.443
980.317;4.419
980.605;4.492
980.892;4.492
981.179;4.492
981.466;4.492
981.753;4.517
982.041;4.468
982.328;4.492
982.614;4.492
982.901;4.346
983.188;4.590
983.475;4.370
983.762;4.492
984.048;4.346
984.335;4.468
984.621;4.492
984.908;4.395
985.194;4.517
985.481;4.492
985.767;4.419
986.053;4.443
986.339;4.517
986.625;4.492
986.911;4.468
987.197;4.468
987.483;4.395
987.769;4.395
988.055;4.517
988.341;4.468
988.626;4.565
988.912;4.541
989.198;4.419
989.483;4.395
989.769;4.517
990.054;4.590
990.339;4.517
990.625;4.517
990.910;4.395
991.195;4.639
991.480;4.541
991.765;4.492
992.050;4.346
992.335;4.541
992.620;4.395
992.905;4.492
993.189;4.468
993.474;4.565
993.759;4.395
994.043;4.419
994.328;4.517
994.612;4.541
994.896;4.517
995.181;4.443
995.465;4.541
995.749;4.492
996.033;4.443
996.317;4.370
996.601;4.321
996.885;4.395
997.169;4.517
997.453;4.321
997.737;4.346
998.020;4.395
998.304;4.443
998.588;4.492
998.871;4.468
999.155;4.419
999.438;4.443
999.721;4.419
1000.005;4.468
1000.288;4.541
1000.571;4.419
1000.854;4.492
1001.137;4.395
1001.420;4.419
1001.703;4.395
1001.986;4.492
1002.269;4.492
1002.551;4.541
1002.834;4.321
1003.117;4.443
1003.399;4.419
1003.682;4.419
1003.964;4.370
1004.247;4.321
1004.529;4.492
1004.811;4.419
1005.093;4.492
1005.375;4.492
1005.658;4.395
1005.940;4.468
1006.221;4.346
1006.503;4.419
1006.785;4.419
1007.067;4.468
1007.349;4.468
1007.630;4.590
1007.912;4.492
1008.193;4.541
1008.475;4.468
1008.756;4.419
1009.038;4.492
1009.319;4.468
1009.600;4.541
1009.881;4.492
1010.162;4.395
1010.443;4.370
1010.724;4.492
1011.005;4.443
1011.286;4.492
1011.567;4.443
1011.847;4.541
1012.128;4.492
1012.409;4.419
1012.689;4.541
1012.970;4.492
1013.250;4.443
1013.531;4.517
1013.811;4.468
1014.091;4.590
1014.371;4.492
1014.651;4.443
1014.931;4.419
1015.211;4.443
1015.491;4.517
1015.771;4.517
1016.051;4.565
1016.331;4.492
1016.610;4.419
1016.890;4.346
1017.170;4.468
1017.449;4.346
1017.728;4.492
1018.008;4.419
1018.287;4.395
1018.566;4.761
