Wavelength (nm);Absorbance Solution;Transmittance Solution
341.676;0.000;100.000
342.058;0.045;90.056
342.440;0.151;70.600
342.822;0.092;80.900
343.204;0.156;69.808
343.586;0.147;71.206
343.968;0.022;95.063
344.350;0.000;100.000
344.732;0.062;86.786
345.114;0.173;67.167
345.495;0.062;86.786
345.877;0.000;100.000
346.259;0.000;100.000
346.640;0.000;100.000
347.022;0.000;100.000
347.403;0.000;100.000
347.785;0.000;100.000
348.166;0.000;100.000
348.548;0.000;100.000
348.929;0.000;100.000
349.311;0.000;100.000
349.692;0.000;100.000
350.073;0.000;100.000
350.454;0.000;100.000
350.836;0.000;100.000
351.217;0.156;69.808
351.598;0.301;50.000
351.979;0.092;80.900
352.360;0.000;100.000
352.741;0.000;100.000
353.122;0.000;100.000
353.503;0.000;100.000
353.884;0.109;77.731
354.265;0.208;61.885
354.645;0.232;58.583
355.026;0.189;64.714
355.407;0.220;60.300
355.787;0.241;57.357
356.168;0.092;80.900
356.549;0.000;100.000
356.929;0.000;100.000
357.310;0.000;100.000
357.690;0.000;100.000
358.071;0.000;100.000
358.451;0.173;67.167
358.831;0.000;100.000
359.212;0.000;100.000
359.592;0.000;100.000
359.972;0.000;100.000
360.352;0.000;100.000
360.732;0.000;100.000
361.113;0.000;100.000
361.493;0.000;100.000
361.873;0.000;100.000
362.253;0.000;100.000
362.632;0.000;100.000
363.012;0.000;100.000
363.392;0.000;100.000
363.772;0.000;100.000
364.152;0.000;100.000
364.532;0.000;100.000
364.911;0.000;100.000
365.291;0.000;100.000
365.670;0.052;88.625
366.050;0.202;62.875
366.430;0.301;50.000
366.809;0.301;50.000
367.188;1.994;1.015
367.568;0.000;100.000
367.947;0.000;100.000
368.327;0.000;100.000
368.706;0.000;100.000
369.085;0.000;100.000
369.464;0.105;78.611
369.843;0.301;50.000
370.223;0.142;72.071
370.602;0.134;73.409
370.981;0.156;69.808
371.360;0.074;84.333
371.739;0.000;100.000
372.118;0.000;100.000
372.496;0.000;100.000
372.875;0.000;100.000
373.254;0.000;100.000
373.633;0.000;100.000
374.011;0.000;100.000
374.390;0.000;100.000
374.769;0.000;100.000
375.147;0.000;100.000
375.526;0.000;100.000
375.904;0.000;100.000
376.283;0.000;100.000
376.661;0.000;100.000
377.040;0.000;100.000
377.418;0.000;100.000
377.796;0.000;100.000
378.175;0.000;100.000
378.553;0.000;100.000
378.931;0.000;100.000
379.309;0.000;100.000
379.687;0.000;100.000
380.065;0.045;90.056
380.443;0.000;100.000
380.821;0.000;100.000
381.199;0.000;100.000
381.577;0.000;100.000
381.955;3.000;0.100
382.333;0.000;100.000
382.710;0.000;100.000
383.088;0.000;100.000
383.466;0.000;100.000
383.843;0.000;100.000
384.221;0.000;100.000
384.599;0.000;100.000
384.976;0.000;100.000
385.353;0.000;100.000
385.731;0.000;100.000
386.108;0.100;79.429
386.486;0.220;60.300
386.863;0.337;46.038
387.240;0.401;39.700
387.617;0.189;64.714
387.995;0.208;61.885
388.372;0.370;42.643
388.749;0.241;57.357
389.126;0.121;75.750
389.503;3.000;0.100
389.880;0.000;100.000
390.257;0.000;100.000
390.634;0.000;100.000
391.011;0.000;100.000
391.387;0.000;100.000
391.764;0.000;100.000
392.141;0.000;100.000
392.518;0.000;100.000
392.894;0.000;100.000
393.271;0.000;100.000
393.647;0.173;67.167
394.024;0.000;100.000
394.400;0.000;100.000
394.777;0.000;100.000
395.153;0.000;100.000
395.530;0.000;100.000
395.906;0.173;67.167
396.282;0.074;84.333
396.658;0.000;100.000
397.034;0.000;100.000
397.411;0.000;100.000
397.787;3.000;0.100
398.163;3.000;0.100
398.539;0.000;100.000
398.915;0.000;100.000
399.291;0.000;100.000
399.667;0.000;100.000
400.042;0.000;100.000
400.418;0.000;100.000
400.794;0.000;100.000
401.170;0.000;100.000
401.545;0.000;100.000
401.921;0.000;100.000
402.297;0.045;90.056
402.672;0.000;100.000
403.048;0.000;100.000
403.423;0.301;50.000
403.799;3.000;0.100
404.174;3.000;0.100
404.549;3.000;0.100
404.925;1.056;8.800
405.300;3.000;0.100
405.675;0.000;100.000
406.050;0.000;100.000
406.426;3.000;0.100
406.801;3.000;0.100
407.176;3.000;0.100
407.551;0.000;100.000
407.926;3.000;0.100
408.301;3.000;0.100
408.676;0.000;100.000
409.050;3.000;0.100
409.425;3.000;0.100
409.800;3.000;0.100
410.175;3.000;0.100
410.549;3.000;0.100
410.924;3.000;0.100
411.299;3.000;0.100
411.673;3.000;0.100
412.048;3.000;0.100
412.422;0.401;39.700
412.797;3.000;0.100
413.171;3.000;0.100
413.545;3.000;0.100
413.920;1.219;6.044
414.294;3.000;0.100
414.668;3.000;0.100
415.042;3.000;0.100
415.416;0.000;100.000
415.790;0.000;100.000
416.164;0.000;100.000
416.538;0.000;100.000
416.912;0.000;100.000
417.286;0.484;32.833
417.660;0.615;24.250
418.034;0.532;29.400
418.408;3.000;0.100
418.782;3.000;0.100
419.155;3.000;0.100
419.529;3.000;0.100
419.903;0.615;24.250
420.276;0.879;13.214
420.650;3.000;0.100
421.023;0.520;30.192
421.397;0.414;38.556
421.770;0.912;12.233
422.144;3.000;0.100
422.517;1.306;4.937
422.890;0.974;10.618
423.263;0.586;25.967
423.637;0.879;13.214
424.010;1.104;7.864
424.383;3.000;0.100
424.756;3.000;0.100
425.129;3.000;0.100
425.502;3.000;0.100
425.875;0.000;100.000
426.248;3.000;0.100
426.621;3.000;0.100
426.994;1.056;8.800
427.366;0.268;53.962
427.739;0.275;53.029
428.112;0.197;63.553
428.484;0.121;75.750
428.857;0.105;78.611
429.230;0.082;82.773
429.602;0.069;85.237
429.975;0.332;46.567
430.347;0.554;27.929
430.719;0.401;39.700
431.092;0.378;41.868
431.464;0.383;41.417
431.836;0.508;31.026
432.209;0.778;16.676
432.581;0.468;34.017
432.953;0.416;38.371
433.325;0.449;35.580
433.697;0.282;52.239
434.069;0.378;41.868
434.441;0.409;38.964
434.813;0.330;46.781
435.185;0.285;51.907
435.557;0.251;56.059
435.929;0.179;66.186
436.300;0.179;66.263
436.672;0.116;76.530
437.044;0.180;66.094
437.415;0.317;48.224
437.787;0.301;50.000
438.159;0.282;52.239
438.530;0.275;53.029
438.902;0.189;64.714
439.273;0.354;44.278
439.644;0.347;45.016
440.016;0.394;40.344
440.387;0.288;51.471
440.758;0.254;55.722
441.129;0.357;43.941
441.501;0.351;44.579
441.872;0.346;45.095
442.243;0.312;48.802
442.614;3.000;0.100
442.985;3.000;0.100
443.356;0.241;57.357
443.727;0.166;68.176
444.098;0.117;76.446
444.468;0.134;73.409
444.839;0.173;67.167
445.210;0.204;62.589
445.581;0.168;67.965
445.951;0.226;59.459
446.322;0.283;52.060
446.692;0.354;44.278
447.063;0.385;41.207
447.433;0.283;52.146
447.804;0.285;51.907
448.174;0.257;55.328
448.545;0.197;63.553
448.915;0.169;67.827
449.285;0.130;74.173
449.655;0.129;74.292
450.026;0.191;64.484
450.396;0.265;54.292
450.766;0.206;62.262
451.136;0.136;73.086
451.506;0.184;65.532
451.876;0.191;64.352
452.246;0.335;46.232
452.616;0.268;53.962
452.985;0.150;70.819
453.355;0.215;60.975
453.725;0.220;60.300
454.095;0.262;54.682
454.464;0.257;55.381
454.834;0.238;57.760
455.204;0.223;59.778
455.573;0.132;73.769
455.943;0.108;78.032
456.312;0.144;71.717
456.681;0.202;62.737
457.051;0.191;64.466
457.420;0.214;61.036
457.789;0.170;67.585
458.159;0.195;63.844
458.528;0.175;66.816
458.897;0.068;85.478
459.266;0.154;70.152
459.635;0.166;68.274
460.004;0.168;67.847
460.373;0.180;66.126
460.742;0.177;66.554
461.111;0.145;71.684
461.480;0.109;77.876
461.849;0.105;78.611
462.217;0.163;68.771
462.586;0.195;63.865
462.955;0.155;70.028
463.323;0.162;68.883
463.692;0.178;66.308
464.060;0.182;65.782
464.429;0.124;75.112
464.797;0.100;79.491
465.166;0.131;74.033
465.534;0.139;72.660
465.903;0.177;66.599
466.271;0.168;67.984
466.639;0.049;89.327
467.007;0.096;80.219
467.375;0.122;75.534
467.744;0.115;76.780
468.112;0.136;73.138
468.480;0.168;67.867
468.848;0.135;73.281
469.216;0.137;72.889
469.583;0.119;76.113
469.951;0.189;64.766
470.319;0.189;64.766
470.687;0.111;77.492
471.055;0.148;71.119
471.422;0.093;80.740
471.790;0.152;70.533
472.157;0.164;68.628
472.525;0.152;70.393
472.892;0.145;71.617
473.260;0.133;73.578
473.627;0.084;82.452
473.995;0.089;81.544
474.362;0.105;78.538
474.729;0.120;75.902
475.097;0.100;79.343
475.464;0.169;67.712
475.831;0.137;72.951
476.198;0.161;69.055
476.565;0.121;75.750
476.932;0.113;77.165
477.299;0.075;84.134
477.666;0.083;82.511
478.033;0.099;79.688
478.400;0.121;75.615
478.767;0.101;79.230
479.133;0.124;75.245
479.500;0.092;80.900
479.867;0.060;87.091
480.233;0.086;82.027
480.600;0.052;88.625
480.966;0.090;81.197
481.333;0.095;80.309
481.699;0.111;77.467
482.066;0.147;71.287
482.432;0.131;73.943
482.798;0.110;77.547
483.165;0.099;79.624
483.531;0.085;82.157
483.897;0.094;80.535
484.263;0.135;73.243
484.629;0.089;81.535
484.996;0.080;83.107
485.362;0.106;78.270
485.727;0.064;86.207
486.093;0.105;78.611
486.459;0.104;78.754
486.825;0.095;80.404
487.191;0.102;79.127
487.557;0.110;77.547
487.922;0.108;78.056
488.288;0.063;86.460
488.654;0.035;92.175
489.019;0.058;87.473
489.385;0.108;78.073
489.750;0.046;89.877
490.116;0.054;88.235
490.481;0.084;82.496
490.846;0.057;87.767
491.212;0.042;90.763
491.577;0.075;84.075
491.942;0.035;92.173
492.307;0.037;91.820
492.673;0.067;85.764
493.038;0.081;82.967
493.403;0.087;81.934
493.768;0.113;77.054
494.133;0.081;82.903
494.498;0.047;89.657
494.862;0.042;90.794
495.227;0.081;82.898
495.592;0.090;81.243
495.957;0.048;89.507
496.322;0.049;89.229
496.686;0.055;88.187
497.051;0.072;84.741
497.415;0.039;91.409
497.780;0.099;79.641
498.144;0.068;85.572
498.509;0.085;82.209
498.873;0.049;89.340
499.238;0.058;87.534
499.602;0.065;86.067
499.966;0.086;82.060
500.330;0.072;84.725
500.694;0.045;90.056
501.059;0.082;82.833
501.423;0.032;92.830
501.787;0.089;81.435
502.151;0.036;92.041
502.515;0.067;85.654
502.879;0.053;88.453
503.242;0.045;90.170
503.606;0.070;85.129
503.970;0.111;77.406
504.334;0.069;85.396
504.697;0.071;84.866
505.061;0.071;84.952
505.425;0.083;82.509
505.788;0.044;90.312
506.152;0.063;86.402
506.515;0.077;83.833
506.878;0.045;90.092
507.242;0.060;87.016
507.605;0.082;82.745
507.968;0.070;85.171
508.332;0.073;84.491
508.695;0.076;83.869
509.058;0.088;81.645
509.421;0.041;90.977
509.784;0.063;86.473
510.147;0.046;89.986
510.510;0.085;82.281
510.873;0.069;85.367
511.236;0.056;87.963
511.599;0.076;84.021
511.962;0.085;82.132
512.324;0.067;85.701
512.687;0.100;79.515
513.050;0.090;81.247
513.412;0.107;78.233
513.775;0.084;82.489
514.137;0.128;74.544
514.500;0.098;79.830
514.862;0.069;85.221
515.225;0.106;78.339
515.587;0.084;82.426
515.949;0.081;82.954
516.312;0.085;82.292
516.674;0.061;86.993
517.036;0.109;77.879
517.398;0.122;75.549
517.760;0.110;77.584
518.122;0.087;81.933
518.484;0.096;80.255
518.846;0.145;71.555
519.208;0.090;81.330
519.570;0.092;80.848
519.932;0.095;80.420
520.293;0.118;76.265
520.655;0.096;80.108
521.017;0.075;84.204
521.379;0.107;78.079
521.740;0.146;71.479
522.102;0.109;77.790
522.463;0.111;77.467
522.825;0.100;79.520
523.186;0.145;71.605
523.547;0.098;79.855
523.909;0.131;74.033
524.270;0.093;80.649
524.631;0.108;77.992
524.992;0.117;76.349
525.353;0.142;72.105
525.715;0.135;73.323
526.076;0.115;76.713
526.437;0.126;74.762
526.798;0.106;78.295
527.159;0.131;74.018
527.519;0.104;78.689
527.880;0.124;75.178
528.241;0.137;72.864
528.602;0.130;74.183
528.962;0.122;75.579
529.323;0.136;73.034
529.684;0.122;75.582
530.044;0.142;72.041
530.405;0.102;79.031
530.765;0.123;75.317
531.126;0.113;77.139
531.486;0.095;80.417
531.846;0.110;77.551
532.207;0.106;78.298
532.567;0.121;75.645
532.927;0.129;74.328
533.287;0.105;78.472
533.647;0.107;78.167
534.007;0.122;75.496
534.367;0.099;79.664
534.727;0.089;81.551
535.087;0.092;80.860
535.447;0.135;73.286
535.807;0.078;83.614
536.167;0.100;79.518
536.526;0.096;80.243
536.886;0.119;76.031
537.246;0.096;80.108
537.605;0.123;75.366
537.965;0.099;79.652
538.324;0.096;80.228
538.684;0.096;80.255
539.043;0.074;84.301
539.403;0.109;77.716
539.762;0.097;79.967
540.121;0.098;79.778
540.481;0.098;79.708
540.840;0.088;81.749
541.199;0.095;80.367
541.558;0.091;81.047
541.917;0.097;80.020
542.276;0.085;82.278
542.635;0.082;82.841
542.994;0.073;84.486
543.353;0.064;86.342
543.712;0.081;82.935
544.071;0.059;87.250
544.429;0.069;85.336
544.788;0.078;83.488
545.147;0.068;85.562
545.505;0.054;88.299
545.864;0.052;88.754
546.222;0.071;84.848
546.581;0.073;84.612
546.939;0.069;85.228
547.298;0.064;86.203
547.656;0.081;82.967
548.014;0.072;84.649
548.373;0.074;84.333
548.731;0.050;89.140
549.089;0.051;88.857
549.447;0.034;92.529
549.805;0.028;93.783
550.163;0.040;91.268
550.521;0.050;89.114
550.879;0.051;88.964
551.237;0.067;85.691
551.595;0.060;87.177
551.953;0.068;85.492
552.310;0.055;88.121
552.668;0.047;89.780
553.026;0.070;85.159
553.383;0.040;91.200
553.741;0.042;90.746
554.098;0.040;91.166
554.456;0.029;93.538
554.813;0.037;91.839
555.171;0.050;89.153
555.528;0.055;88.010
555.885;0.036;91.945
556.242;0.054;88.368
556.600;0.033;92.713
556.957;0.036;92.122
557.314;0.017;96.147
557.671;0.038;91.563
558.028;0.037;91.752
558.385;0.029;93.627
558.742;0.032;92.811
559.099;0.050;89.108
559.456;0.038;91.698
559.812;0.020;95.558
560.169;0.032;92.823
560.526;0.060;87.058
560.883;0.037;91.783
561.239;0.036;91.963
561.596;0.029;93.589
561.952;0.030;93.241
562.309;0.029;93.500
562.665;0.018;95.950
563.021;0.026;94.155
563.378;0.033;92.703
563.734;0.057;87.643
564.090;0.030;93.260
564.447;0.043;90.616
564.803;0.027;94.015
565.159;0.020;95.580
565.515;0.048;89.615
565.871;0.037;91.789
566.227;0.031;93.065
566.583;0.035;92.152
566.939;0.033;92.703
567.294;0.034;92.543
567.650;0.021;95.297
568.006;0.021;95.187
568.362;0.013;97.140
568.717;0.057;87.689
569.073;0.051;88.854
569.428;0.044;90.400
569.784;0.032;92.874
570.139;0.045;90.258
570.495;0.017;96.196
570.850;0.017;96.141
571.205;0.027;93.984
571.561;0.024;94.534
571.916;0.041;91.065
572.271;0.041;91.046
572.626;0.036;92.046
572.981;0.051;88.895
573.336;0.034;92.412
573.691;0.025;94.497
574.046;0.026;94.278
574.401;0.030;93.387
574.756;0.028;93.839
575.111;0.018;96.004
575.466;0.024;94.598
575.820;0.022;95.074
576.175;0.053;88.456
576.530;0.028;93.671
576.884;0.044;90.440
577.239;0.035;92.344
577.593;0.031;93.153
577.948;0.053;88.581
578.302;0.027;94.003
578.656;0.034;92.427
579.011;0.052;88.780
579.365;0.037;91.849
579.719;0.046;89.879
580.073;0.036;92.104
580.428;0.021;95.345
580.782;0.040;91.183
581.136;0.018;95.932
581.490;0.013;96.982
581.844;0.064;86.260
582.197;0.028;93.857
582.551;0.058;87.430
582.905;0.055;88.112
583.259;0.027;94.009
583.613;0.025;94.415
583.966;0.014;96.818
584.320;0.028;93.822
584.673;0.025;94.473
585.027;0.055;88.145
585.380;0.031;93.027
585.734;0.019;95.757
586.087;0.026;94.091
586.440;0.039;91.460
586.794;0.056;88.003
587.147;0.030;93.422
587.500;0.026;94.195
587.853;0.032;92.901
588.206;0.047;89.703
588.559;0.037;91.804
588.913;0.041;91.090
589.265;0.041;90.941
589.618;0.047;89.650
589.971;0.034;92.369
590.324;0.014;96.852
590.677;0.044;90.445
591.030;0.052;88.648
591.382;0.026;94.116
591.735;0.046;89.877
592.087;0.033;92.768
592.440;0.012;97.296
592.792;0.042;90.723
593.145;0.014;96.802
593.497;0.021;95.246
593.850;0.027;93.990
594.202;0.020;95.514
594.554;0.021;95.235
594.906;0.007;98.487
595.259;0.049;89.283
595.611;0.029;93.442
595.963;0.021;95.220
596.315;0.027;94.067
596.667;0.015;96.647
597.019;0.027;93.921
597.371;0.034;92.386
597.723;0.037;91.812
598.074;0.027;94.044
598.426;0.023;94.735
598.778;0.036;91.979
599.129;0.025;94.431
599.481;0.018;95.910
599.833;0.031;93.060
600.184;0.022;95.063
600.536;0.014;96.849
600.887;0.022;95.052
601.238;0.025;94.391
601.590;0.048;89.560
601.941;0.042;90.828
602.292;0.043;90.590
602.643;0.029;93.527
602.994;0.051;88.982
603.346;0.030;93.330
603.697;0.041;90.952
604.048;0.058;87.497
604.399;0.012;97.215
604.749;0.040;91.154
605.100;0.038;91.581
605.451;0.036;92.081
605.802;0.031;93.095
606.153;0.020;95.543
606.503;0.023;94.845
606.854;0.009;97.854
607.204;0.031;93.128
607.555;0.033;92.779
607.905;0.022;95.166
608.256;0.031;93.189
608.606;0.026;94.164
608.957;0.021;95.253
609.307;0.032;92.796
609.657;0.011;97.579
610.007;0.035;92.266
610.358;0.035;92.253
610.708;0.021;95.170
611.058;0.021;95.346
611.408;0.001;99.769
611.758;0.029;93.492
612.108;0.035;92.238
612.457;0.025;94.372
612.807;0.042;90.731
613.157;0.023;94.873
613.507;0.039;91.322
613.856;0.028;93.747
614.206;0.042;90.859
614.556;0.019;95.816
614.905;0.041;90.895
615.255;0.035;92.234
615.604;0.008;98.114
615.954;0.037;91.909
616.303;0.033;92.737
616.652;0.021;95.336
617.001;0.038;91.609
617.351;0.027;93.865
617.700;0.033;92.751
618.049;0.030;93.365
618.398;0.024;94.722
618.747;0.028;93.705
619.096;0.029;93.457
619.445;0.029;93.517
619.794;0.037;91.733
620.143;0.049;89.235
620.491;0.041;91.002
620.840;0.010;97.752
621.189;0.029;93.439
621.537;0.051;89.019
621.886;0.018;95.966
622.235;0.031;93.135
622.583;0.032;92.843
622.932;0.027;93.963
623.280;0.030;93.290
623.628;0.055;88.146
623.977;0.037;91.840
624.325;0.041;90.977
624.673;0.019;95.750
625.021;0.038;91.560
625.369;0.018;96.033
625.717;0.047;89.773
626.065;0.036;92.005
626.413;0.036;92.046
626.761;0.030;93.260
627.109;0.018;96.015
627.457;0.038;91.564
627.805;0.038;91.532
628.153;0.018;95.995
628.500;0.031;93.211
628.848;0.037;91.882
629.196;0.010;97.630
629.543;0.018;95.982
629.891;0.038;91.685
630.238;0.035;92.234
630.585;0.012;97.355
630.933;0.029;93.483
631.280;0.021;95.235
631.627;0.021;95.221
631.975;0.033;92.581
632.322;0.029;93.549
632.669;0.039;91.329
633.016;0.026;94.177
633.363;0.037;91.930
633.710;0.044;90.362
634.057;0.030;93.314
634.404;0.035;92.291
634.751;0.027;93.866
635.097;0.029;93.438
635.444;0.023;94.827
635.791;0.035;92.271
636.137;0.023;94.910
636.484;0.041;91.058
636.831;0.029;93.595
637.177;0.006;98.666
637.524;0.039;91.357
637.870;0.029;93.513
638.216;0.051;88.984
638.563;0.046;89.846
638.909;0.021;95.356
639.255;0.043;90.664
639.601;0.029;93.558
639.947;0.031;93.087
640.293;0.042;90.778
640.639;0.046;89.964
640.985;0.006;98.653
641.331;0.030;93.403
641.677;0.016;96.392
642.023;0.027;93.897
642.369;0.026;94.151
642.715;0.048;89.571
643.060;0.037;91.776
643.406;0.033;92.637
643.751;0.000;100.000
644.097;0.022;94.996
644.442;0.032;92.818
644.788;0.023;94.943
645.133;0.024;94.529
645.479;0.023;94.908
645.824;0.027;94.018
646.169;0.026;94.151
646.514;0.018;95.980
646.860;0.029;93.577
647.205;0.025;94.491
647.550;0.042;90.694
647.895;0.021;95.297
648.240;0.030;93.302
648.585;0.030;93.424
648.930;0.028;93.729
649.274;0.034;92.378
649.619;0.039;91.496
649.964;0.037;91.787
650.309;0.046;89.931
650.653;0.027;93.930
650.998;0.032;92.812
651.342;0.028;93.697
651.687;0.037;91.854
652.031;0.030;93.219
652.376;0.023;94.739
652.720;0.014;96.859
653.064;0.020;95.441
653.408;0.022;94.978
653.753;0.026;94.296
654.097;0.049;89.345
654.441;0.029;93.501
654.785;0.024;94.655
655.129;0.018;95.858
655.473;0.032;92.944
655.817;0.044;90.376
656.161;0.013;97.003
656.504;0.025;94.324
656.848;0.021;95.290
657.192;0.011;97.509
657.536;0.036;92.060
657.879;0.031;93.083
658.223;0.017;96.112
658.566;0.012;97.289
658.910;0.024;94.675
659.253;0.036;92.025
659.597;0.029;93.523
659.940;0.027;93.951
660.283;0.033;92.614
660.626;0.011;97.523
660.970;0.037;91.743
661.313;0.022;95.037
661.656;0.041;90.921
661.999;0.029;93.592
662.342;0.032;92.999
662.685;0.030;93.391
663.028;0.019;95.706
663.370;0.015;96.613
663.713;0.028;93.694
664.056;0.028;93.678
664.399;0.018;95.915
664.741;0.027;93.984
665.084;0.038;91.594
665.426;0.030;93.420
665.769;0.028;93.830
666.111;0.021;95.199
666.454;0.036;91.976
666.796;0.028;93.681
667.138;0.038;91.657
667.481;0.033;92.625
667.823;0.020;95.390
668.165;0.034;92.488
668.507;0.016;96.350
668.849;0.024;94.645
669.191;0.016;96.302
669.533;0.015;96.680
669.875;0.018;95.973
670.217;0.027;93.987
670.559;0.019;95.750
670.901;0.022;95.088
671.242;0.020;95.516
671.584;0.021;95.178
671.926;0.031;93.210
672.267;0.024;94.581
672.609;0.028;93.694
672.950;0.035;92.255
673.292;0.032;92.986
673.633;0.012;97.167
673.974;0.032;92.954
674.316;0.031;93.131
674.657;0.024;94.585
674.998;0.035;92.200
675.339;0.031;93.185
675.680;0.020;95.474
676.021;0.018;95.857
676.362;0.033;92.595
676.703;0.016;96.272
677.044;0.026;94.084
677.385;0.028;93.817
677.726;0.031;93.077
678.067;0.030;93.268
678.407;0.033;92.762
678.748;0.028;93.764
679.088;0.018;95.980
679.429;0.029;93.469
679.770;0.027;94.062
680.110;0.038;91.580
680.450;0.038;91.705
680.791;0.028;93.801
681.131;0.019;95.650
681.471;0.029;93.609
681.811;0.019;95.642
682.152;0.034;92.451
682.492;0.030;93.376
682.832;0.019;95.791
683.172;0.035;92.251
683.512;0.025;94.306
683.852;0.013;97.007
684.192;0.026;94.229
684.531;0.030;93.297
684.871;0.020;95.451
685.211;0.021;95.261
685.551;0.024;94.573
685.890;0.034;92.436
686.230;0.023;94.797
686.569;0.028;93.844
686.909;0.015;96.551
687.248;0.027;93.962
687.588;0.042;90.853
687.927;0.026;94.272
688.266;0.027;93.937
688.605;0.012;97.194
688.945;0.038;91.634
689.284;0.026;94.255
689.623;0.031;93.102
689.962;0.025;94.349
690.301;0.028;93.687
690.640;0.020;95.514
690.979;0.017;96.185
691.317;0.016;96.417
691.656;0.021;95.213
691.995;0.033;92.737
692.334;0.019;95.698
692.672;0.028;93.700
693.011;0.016;96.292
693.349;0.026;94.239
693.688;0.012;97.218
694.026;0.020;95.439
694.365;0.027;94.061
694.703;0.026;94.085
695.041;0.021;95.368
695.379;0.021;95.342
695.718;0.025;94.473
696.056;0.020;95.581
696.394;0.021;95.345
696.732;0.028;93.831
697.070;0.015;96.500
697.408;0.023;94.815
697.746;0.010;97.829
698.084;0.022;94.960
698.421;0.025;94.481
698.759;0.018;95.895
699.097;0.023;94.787
699.435;0.020;95.463
699.772;0.021;95.215
700.110;0.023;94.926
700.447;0.022;95.037
700.785;0.021;95.206
701.122;0.014;96.724
701.459;0.025;94.306
701.797;0.021;95.202
702.134;0.013;96.986
702.471;0.012;97.220
702.808;0.030;93.225
703.145;0.015;96.523
703.482;0.023;94.934
703.819;0.017;96.261
704.156;0.018;95.895
704.493;0.019;95.738
704.830;0.011;97.548
705.167;0.027;93.869
705.504;0.028;93.784
705.840;0.017;96.218
706.177;0.012;97.366
706.514;0.015;96.502
706.850;0.017;96.232
707.187;0.020;95.427
707.523;0.028;93.807
707.860;0.020;95.432
708.196;0.026;94.157
708.532;0.017;96.205
708.868;0.015;96.642
709.205;0.029;93.627
709.541;0.019;95.810
709.877;0.019;95.678
710.213;0.019;95.649
710.549;0.019;95.703
710.885;0.022;94.984
711.221;0.011;97.406
711.557;0.019;95.733
711.893;0.021;95.292
712.228;0.023;94.921
712.564;0.019;95.795
712.900;0.023;94.926
713.235;0.012;97.382
713.571;0.021;95.366
713.906;0.026;94.284
714.242;0.024;94.540
714.577;0.011;97.501
714.913;0.023;94.845
715.248;0.007;98.304
715.583;0.030;93.393
715.918;0.021;95.230
716.254;0.005;98.899
716.589;0.008;98.203
716.924;0.007;98.491
717.259;0.011;97.473
717.594;0.019;95.761
717.929;0.014;96.753
718.263;0.020;95.543
718.598;0.020;95.414
718.933;0.020;95.409
719.268;0.016;96.465
719.602;0.019;95.724
719.937;0.016;96.358
720.272;0.022;95.148
720.606;0.018;95.967
720.941;0.025;94.375
721.275;0.020;95.405
721.609;0.012;97.175
721.944;0.021;95.370
722.278;0.016;96.302
722.612;0.017;96.258
722.946;0.008;98.284
723.280;0.017;96.237
723.614;0.008;98.241
723.948;0.011;97.493
724.282;0.008;98.216
724.616;0.014;96.787
724.950;0.017;96.170
725.284;0.005;98.816
725.618;0.017;96.088
725.951;0.019;95.613
726.285;0.006;98.720
726.619;0.010;97.742
726.952;0.004;98.970
727.286;0.018;95.891
727.619;0.010;97.745
727.953;0.010;97.809
728.286;0.015;96.666
728.619;0.016;96.407
728.953;0.013;96.988
729.286;0.010;97.631
729.619;0.015;96.593
729.952;0.020;95.580
730.285;0.011;97.535
730.618;0.000;100.000
730.951;0.007;98.440
731.284;0.013;97.132
731.617;0.011;97.559
731.950;0.005;98.939
732.282;0.017;96.143
732.615;0.014;96.838
732.948;0.007;98.372
733.280;0.016;96.427
733.613;0.020;95.532
733.945;0.010;97.810
734.278;0.013;97.107
734.610;0.021;95.241
734.942;0.014;96.816
735.275;0.010;97.719
735.607;0.017;96.180
735.939;0.013;97.024
736.271;0.008;98.224
736.603;0.007;98.324
736.936;0.023;94.775
737.268;0.010;97.673
737.599;0.015;96.698
737.931;0.014;96.899
738.263;0.019;95.819
738.595;0.010;97.807
738.927;0.017;96.094
739.258;0.015;96.684
739.590;0.000;100.000
739.922;0.007;98.489
740.253;0.012;97.228
740.585;0.023;94.734
740.916;0.014;96.868
741.248;0.025;94.344
741.579;0.021;95.354
741.910;0.011;97.415
742.241;0.010;97.690
742.573;0.023;94.916
742.904;0.006;98.556
743.235;0.010;97.735
743.566;0.018;95.904
743.897;0.012;97.386
744.228;0.018;95.853
744.559;0.008;98.181
744.889;0.012;97.239
745.220;0.029;93.526
745.551;0.017;96.155
745.882;0.006;98.648
746.212;0.025;94.365
746.543;0.023;94.949
746.873;0.015;96.500
747.204;0.018;95.910
747.534;0.013;97.116
747.865;0.013;97.039
748.195;0.021;95.374
748.525;0.016;96.275
748.855;0.013;97.043
749.186;0.014;96.776
749.516;0.017;96.079
749.846;0.019;95.616
750.176;0.010;97.685
750.506;0.018;95.833
750.836;0.011;97.406
751.166;0.019;95.778
751.495;0.026;94.210
751.825;0.029;93.516
752.155;0.018;95.917
752.484;0.011;97.482
752.814;0.018;95.928
753.144;0.017;96.172
753.473;0.008;98.097
753.803;0.020;95.519
754.132;0.025;94.303
754.461;0.013;97.040
754.791;0.013;97.126
755.120;0.010;97.712
755.449;0.023;94.775
755.778;0.016;96.434
756.107;0.026;94.266
756.436;0.014;96.938
756.765;0.020;95.450
757.094;0.013;97.040
757.423;0.020;95.527
757.752;0.024;94.592
758.081;0.017;96.230
758.410;0.015;96.628
758.738;0.014;96.731
759.067;0.020;95.567
759.396;0.019;95.658
759.724;0.028;93.686
760.053;0.022;95.159
760.381;0.021;95.344
760.709;0.018;95.850
761.038;0.028;93.747
761.366;0.017;96.070
761.694;0.020;95.419
762.022;0.014;96.801
762.351;0.014;96.868
762.679;0.019;95.766
763.007;0.018;95.979
763.335;0.018;95.934
763.663;0.030;93.240
763.990;0.010;97.644
764.318;0.018;96.006
764.646;0.020;95.605
764.974;0.017;96.159
765.301;0.017;96.165
765.629;0.030;93.297
765.957;0.027;94.050
766.284;0.011;97.514
766.612;0.019;95.778
766.939;0.010;97.643
767.266;0.019;95.781
767.594;0.019;95.737
767.921;0.018;96.006
768.248;0.019;95.791
768.575;0.005;98.758
768.902;0.009;98.041
769.229;0.015;96.604
769.556;0.032;92.801
769.883;0.017;96.192
770.210;0.014;96.746
770.537;0.020;95.445
770.864;0.022;95.126
771.191;0.024;94.713
771.517;0.008;98.120
771.844;0.003;99.273
772.171;0.009;97.981
772.497;0.022;95.035
772.824;0.011;97.565
773.150;0.018;96.032
773.476;0.035;92.233
773.803;0.013;97.005
774.129;0.027;94.061
774.455;0.011;97.571
774.781;0.013;97.131
775.107;0.028;93.764
775.434;0.015;96.658
775.760;0.008;98.080
776.086;0.017;96.128
776.411;0.014;96.739
776.737;0.013;97.016
777.063;0.017;96.208
777.389;0.013;96.942
777.715;0.016;96.353
778.040;0.025;94.385
778.366;0.010;97.724
778.691;0.007;98.389
779.017;0.011;97.417
779.342;0.020;95.462
779.668;0.007;98.425
779.993;0.010;97.742
780.318;0.006;98.720
780.644;0.025;94.344
780.969;0.006;98.588
781.294;0.026;94.268
781.619;0.005;98.941
781.944;0.018;95.850
782.269;0.004;99.068
782.594;0.009;97.916
782.919;0.008;98.180
783.244;0.027;94.020
783.568;0.014;96.901
783.893;0.030;93.417
784.218;0.010;97.679
784.542;0.006;98.721
784.867;0.024;94.562
785.192;0.000;100.000
785.516;0.010;97.815
785.840;0.031;93.119
786.165;0.009;97.939
786.489;0.000;100.000
786.813;0.000;100.000
787.138;6.115E-4;99.859
787.462;0.021;95.325
787.786;0.005;98.811
788.110;0.024;94.682
788.434;0.013;97.034
788.758;0.014;96.918
789.082;0.013;96.988
789.406;0.021;95.229
789.729;0.015;96.669
790.053;0.004;99.026
790.377;0.005;98.905
790.700;0.033;92.658
791.024;0.011;97.596
791.348;0.007;98.370
791.671;0.012;97.259
791.994;0.019;95.778
792.318;0.025;94.326
792.641;0.004;99.107
792.964;0.008;98.174
793.288;0.000;100.000
793.611;0.000;100.000
793.934;0.016;96.445
794.257;0.023;94.841
794.580;0.002;99.523
794.903;0.003;99.299
795.226;0.006;98.522
795.549;0.027;93.958
795.871;0.003;99.271
796.194;0.018;96.025
796.517;0.014;96.932
796.840;0.004;99.064
797.162;0.017;96.120
797.485;0.015;96.672
797.807;0.013;97.037
798.130;0.002;99.614
798.452;0.000;100.000
798.774;0.007;98.318
799.097;0.022;94.982
799.419;0.000;100.000
799.741;0.000;100.000
800.063;0.009;97.936
800.385;0.000;100.000
800.707;0.001;99.675
801.029;0.004;99.012
801.351;0.000;100.000
801.673;0.000;100.000
801.995;0.000;100.000
802.317;0.000;100.000
802.638;0.020;95.568
802.960;0.000;100.000
803.281;0.005;98.898
803.603;0.004;98.974
803.924;0.000;100.000
804.246;0.003;99.285
804.567;0.021;95.323
804.889;0.000;100.000
805.210;0.010;97.652
805.531;0.003;99.296
805.852;0.000;100.000
806.173;0.014;96.818
806.495;0.010;97.810
806.816;0.000;100.000
807.137;0.004;99.173
807.457;0.015;96.526
807.778;0.000;100.000
808.099;0.000;100.000
808.420;0.004;98.975
808.741;0.000;100.000
809.061;0.000;100.000
809.382;0.009;97.871
809.702;0.000;100.000
810.023;0.000;100.000
810.343;0.000;100.000
810.664;0.000;100.000
810.984;0.022;94.957
811.304;0.002;99.447
811.625;0.005;98.864
811.945;0.000;100.000
812.265;0.001;99.767
812.585;0.004;99.072
812.905;0.008;98.217
813.225;0.004;99.197
813.545;0.000;100.000
813.865;0.005;98.822
814.184;0.003;99.332
814.504;0.000;100.000
814.824;0.000;100.000
815.144;0.000;100.000
815.463;0.000;100.000
815.783;0.009;97.854
816.102;0.014;96.891
816.422;0.000;100.000
816.741;0.000;100.000
817.060;0.000;100.000
817.380;0.020;95.400
817.699;0.000;100.000
818.018;0.007;98.297
818.337;0.000;100.000
818.656;0.000;100.000
818.975;0.000;100.000
819.294;2.462E-4;99.943
819.613;0.000;100.000
819.932;0.005;98.892
820.251;0.001;99.661
820.570;0.000;100.000
820.888;0.000;100.000
821.207;0.000;100.000
821.526;0.019;95.763
821.844;0.010;97.685
822.163;0.007;98.404
822.481;0.000;100.000
822.799;0.000;100.000
823.118;0.000;100.000
823.436;0.000;100.000
823.754;0.012;97.220
824.072;0.031;93.203
824.390;0.000;100.000
824.709;0.009;97.938
825.027;0.006;98.725
825.345;0.000;100.000
825.662;0.002;99.633
825.980;0.000;100.000
826.298;0.024;94.517
826.616;0.019;95.794
826.934;2.224E-4;99.949
827.251;0.000;100.000
827.569;0.000;100.000
827.886;0.000;100.000
828.204;0.037;91.761
828.521;0.006;98.674
828.839;0.009;98.035
829.156;0.000;100.000
829.473;0.000;100.000
829.790;0.000;100.000
830.108;0.015;96.610
830.425;0.021;95.387
830.742;0.010;97.732
831.059;0.026;94.186
831.376;0.000;100.000
831.693;0.013;97.008
832.009;0.006;98.612
832.326;0.017;96.178
832.643;0.018;95.924
832.960;0.000;100.000
833.276;0.025;94.374
833.593;0.040;91.299
833.909;0.030;93.351
834.226;0.000;100.000
834.542;7.244E-4;99.833
834.859;0.000;100.000
835.175;0.002;99.500
835.491;0.021;95.365
835.807;0.020;95.441
836.123;0.011;97.474
836.440;0.000;100.000
836.756;0.036;92.075
837.072;0.018;95.906
837.388;0.000;100.000
837.703;0.012;97.208
838.019;0.020;95.421
838.335;0.035;92.224
838.651;0.004;99.056
838.966;0.026;94.095
839.282;0.032;92.971
839.598;0.029;93.603
839.913;0.037;91.735
840.229;0.032;92.861
840.544;0.000;100.000
840.859;0.013;96.992
841.175;0.020;95.558
841.490;8.437E-4;99.806
841.805;0.013;97.095
842.120;0.043;90.675
842.435;0.000;100.000
842.750;0.032;92.890
843.065;0.008;98.067
843.380;0.032;92.833
843.695;0.000;100.000
844.010;0.013;96.992
844.325;0.030;93.325
844.639;0.029;93.500
844.954;0.018;96.021
845.269;0.000;100.000
845.583;0.042;90.811
845.898;0.011;97.552
846.212;0.025;94.385
846.526;0.000;100.000
846.841;0.000;100.000
847.155;0.051;88.931
847.469;0.024;94.560
847.783;0.052;88.711
848.097;0.000;100.000
848.412;0.063;86.460
848.726;0.000;100.000
849.039;0.046;90.016
849.353;0.000;100.000
849.667;0.026;94.246
849.981;0.019;95.614
850.295;0.030;93.274
850.608;0.023;94.926
850.922;0.006;98.514
851.236;0.090;81.255
851.549;0.035;92.169
851.863;0.005;98.869
852.176;0.011;97.424
852.489;0.005;98.830
852.803;0.028;93.842
853.116;0.058;87.521
853.429;0.000;100.000
853.742;0.069;85.314
854.055;0.053;88.579
854.368;0.010;97.792
854.681;0.064;86.255
854.994;0.051;88.993
855.307;0.005;98.820
855.620;0.013;97.091
855.933;0.061;86.950
856.246;0.051;88.968
856.558;0.039;91.432
856.871;0.027;93.963
857.183;0.019;95.662
857.496;0.000;100.000
857.808;0.042;90.804
858.121;0.037;91.806
858.433;0.033;92.614
858.745;0.041;91.080
859.058;0.007;98.471
859.370;5.863E-4;99.865
859.682;0.006;98.533
859.994;0.003;99.327
860.306;0.001;99.724
860.618;0.042;90.815
860.930;0.003;99.280
861.242;0.045;90.153
861.553;0.011;97.434
861.865;0.018;95.957
862.177;0.013;97.098
862.488;0.052;88.680
862.800;0.036;92.055
863.112;0.050;89.069
863.423;0.017;96.126
863.734;0.032;92.841
864.046;0.004;99.059
864.357;0.035;92.355
864.668;0.008;98.141
864.980;0.008;98.141
865.291;0.021;95.342
865.602;0.020;95.512
865.913;0.000;100.000
866.224;0.000;100.000
866.535;0.041;90.974
866.846;0.007;98.402
867.156;0.022;95.017
867.467;0.052;88.792
867.778;0.008;98.089
868.089;0.000;100.000
868.399;0.000;100.000
868.710;0.000;100.000
869.020;0.010;97.745
869.331;0.030;93.301
869.641;0.024;94.526
869.951;0.000;100.000
870.262;0.006;98.523
870.572;0.000;100.000
870.882;0.022;95.135
871.192;0.037;91.826
871.502;0.006;98.590
871.812;0.039;91.494
872.122;0.021;95.295
872.432;0.042;90.691
872.742;0.043;90.487
873.052;0.069;85.237
873.361;0.000;100.000
873.671;0.039;91.390
873.981;0.084;82.380
874.290;0.000;100.000
874.600;0.000;100.000
874.909;0.048;89.539
875.219;0.039;91.468
875.528;0.010;97.795
875.837;0.000;100.000
876.147;0.000;100.000
876.456;0.010;97.821
876.765;0.027;94.036
877.074;0.000;100.000
877.383;0.013;96.989
877.692;0.011;97.413
878.001;0.011;97.477
878.310;0.000;100.000
878.619;0.014;96.782
878.927;6.432E-4;99.852
879.236;0.012;97.313
879.545;0.062;86.786
879.853;0.047;89.776
880.162;0.052;88.625
880.470;0.005;98.789
880.779;0.000;100.000
881.087;0.000;100.000
881.395;0.034;92.385
881.704;0.000;100.000
882.012;0.001;99.661
882.320;0.039;91.473
882.628;0.000;100.000
882.936;0.015;96.595
883.244;0.012;97.253
883.552;0.000;100.000
883.860;0.000;100.000
884.168;0.000;100.000
884.475;0.033;92.640
884.783;0.078;83.500
885.091;0.000;100.000
885.398;0.025;94.431
885.706;0.041;90.990
886.013;0.028;93.830
886.321;0.009;97.989
886.628;0.000;100.000
886.936;0.014;96.818
887.243;0.000;100.000
887.550;0.021;95.381
887.857;0.016;96.350
888.164;0.038;91.638
888.471;0.069;85.298
888.778;0.021;95.220
889.085;0.016;96.285
889.392;0.000;100.000
889.699;0.000;100.000
890.006;0.000;100.000
890.312;0.000;100.000
890.619;0.000;100.000
890.926;0.000;100.000
891.232;0.022;95.063
891.539;0.048;89.523
891.845;0.027;93.963
892.152;0.038;91.690
892.458;0.062;86.608
892.764;0.104;78.760
893.070;0.000;100.000
893.377;0.020;95.529
893.683;0.070;85.080
893.989;0.058;87.455
894.295;0.034;92.543
894.601;0.020;95.441
894.907;0.000;100.000
895.213;0.013;97.148
895.518;0.000;100.000
895.824;0.000;100.000
896.130;0.066;85.894
896.435;0.031;93.057
896.741;0.025;94.397
897.046;0.067;85.654
897.352;0.036;91.963
897.657;0.000;100.000
897.963;0.000;100.000
898.268;0.000;100.000
898.573;0.000;100.000
898.878;0.016;96.350
899.183;0.000;100.000
899.488;0.000;100.000
899.793;0.000;100.000
900.098;0.000;100.000
900.403;0.000;100.000
900.708;0.025;94.397
901.013;0.024;94.633
901.318;0.000;100.000
901.622;0.000;100.000
901.927;0.000;100.000
902.232;0.000;100.000
902.536;0.000;100.000
902.841;0.000;100.000
903.145;0.000;100.000
903.449;0.063;86.479
903.754;0.111;77.394
904.058;0.047;89.795
904.362;0.004;99.048
904.666;0.002;99.440
904.970;0.076;84.009
905.274;0.092;80.900
905.578;0.025;94.477
905.882;0.000;100.000
906.186;0.006;98.639
906.490;0.020;95.441
906.793;0.000;100.000
907.097;0.000;100.000
907.401;0.000;100.000
907.704;0.000;100.000
908.008;0.000;100.000
908.311;0.087;81.777
908.615;0.090;81.348
908.918;0.052;88.625
909.221;0.000;100.000
909.525;0.029;93.577
909.828;0.095;80.294
910.131;0.007;98.471
910.434;0.092;80.900
910.737;0.149;70.878
911.040;0.033;92.671
911.343;0.049;89.382
911.646;0.083;82.526
911.949;0.058;87.581
912.251;0.078;83.475
912.554;0.025;94.397
912.857;0.000;100.000
913.159;0.088;81.565
913.462;0.121;75.750
913.764;0.087;81.881
914.067;0.019;95.778
914.369;0.064;86.353
914.671;0.101;79.230
914.973;0.057;87.767
915.276;0.051;89.015
915.578;0.000;100.000
915.880;0.042;90.845
916.182;0.082;82.773
916.484;0.370;42.643
916.786;0.000;100.000
917.087;0.000;100.000
917.389;0.029;93.577
917.691;0.047;89.729
917.993;0.106;78.325
918.294;0.019;95.614
918.596;0.020;95.441
918.897;0.062;86.786
919.199;0.044;90.365
919.500;0.019;95.614
919.802;0.000;100.000
920.103;0.006;98.716
920.404;0.007;98.471
920.705;0.142;72.071
921.006;0.195;63.817
921.307;0.072;84.797
921.608;0.054;88.210
921.909;0.137;72.889
922.210;0.069;85.237
922.511;0.079;83.324
922.812;0.121;75.750
923.113;0.125;75.014
923.413;0.202;62.875
923.714;0.189;64.714
924.015;0.113;77.105
924.315;0.146;71.458
924.615;0.111;77.394
924.916;0.065;86.050
925.216;0.018;95.932
925.516;0.052;88.625
925.817;0.069;85.406
926.117;0.077;83.843
926.417;0.072;84.797
926.717;0.062;86.786
927.017;0.072;84.797
927.317;0.134;73.409
927.617;0.062;86.786
927.917;0.052;88.625
928.216;0.000;100.000
928.516;0.000;100.000
928.816;0.100;79.429
929.115;0.107;78.242
929.415;0.021;95.258
929.715;0.000;100.000
930.014;0.000;100.000
930.313;0.008;98.281
930.613;0.092;80.900
930.912;0.095;80.372
931.211;0.000;100.000
931.510;0.019;95.778
931.809;0.069;85.237
932.108;0.000;100.000
932.407;0.000;100.000
932.706;0.000;100.000
933.005;0.049;89.382
933.304;0.079;83.324
933.603;0.074;84.333
933.902;0.049;89.382
934.200;0.109;77.731
934.499;0.168;67.965
934.797;0.109;77.731
935.096;0.047;89.729
935.394;0.033;92.671
935.693;0.076;83.915
935.991;0.051;88.939
936.289;0.006;98.557
936.587;0.007;98.379
936.885;0.000;100.000
937.184;0.000;100.000
937.482;0.000;100.000
937.780;0.045;90.056
938.077;0.105;78.611
938.375;0.016;96.350
938.673;0.036;92.136
938.971;0.039;91.451
939.269;0.017;96.079
939.566;0.000;100.000
939.864;0.005;98.859
940.161;0.060;87.128
940.459;0.039;91.451
940.756;0.000;100.000
941.054;0.000;100.000
941.351;0.000;100.000
941.648;0.051;89.015
941.945;0.109;77.731
942.242;0.147;71.354
942.539;0.136;73.175
942.836;0.005;98.859
943.133;0.004;98.988
943.430;0.000;100.000
943.727;0.081;83.013
944.024;0.092;80.900
944.321;0.095;80.372
944.617;0.140;72.449
944.914;0.063;86.427
945.210;0.049;89.238
945.507;0.109;77.731
945.803;0.072;84.797
946.100;0.000;100.000
946.396;0.060;87.128
946.692;0.038;91.690
946.989;0.032;92.917
947.285;0.085;82.187
947.581;0.000;100.000
947.877;0.000;100.000
948.173;0.051;89.015
948.469;0.138;72.756
948.765;0.195;63.865
949.061;0.151;70.600
949.356;0.080;83.189
949.652;0.147;71.354
949.948;0.167;68.095
950.243;0.113;77.105
950.539;0.049;89.382
950.834;0.020;95.441
951.130;0.016;96.476
951.425;0.000;100.000
951.720;0.000;100.000
952.016;0.049;89.382
952.311;0.074;84.333
952.606;0.095;80.432
952.901;0.106;78.325
953.196;0.076;83.915
953.491;0.107;78.091
953.786;0.017;96.218
954.081;0.044;90.365
954.376;0.086;82.014
954.670;0.043;90.658
954.965;0.054;88.295
955.260;0.109;77.731
955.554;0.047;89.729
955.849;0.000;100.000
956.143;0.000;100.000
956.438;0.000;100.000
956.732;0.042;90.845
957.026;0.139;72.660
957.320;0.126;74.796
957.615;0.000;100.000
957.909;0.000;100.000
958.203;0.044;90.464
958.497;0.037;91.844
958.791;0.000;100.000
959.085;0.023;94.855
959.378;0.000;100.000
959.672;0.000;100.000
959.966;0.085;82.187
960.260;0.107;78.242
960.553;0.034;92.412
960.847;0.032;92.917
961.140;0.006;98.557
961.434;0.029;93.577
961.727;0.054;88.295
962.020;0.137;72.889
962.314;0.121;75.750
962.607;0.095;80.294
962.900;0.021;95.258
963.193;0.021;95.258
963.486;0.000;100.000
963.779;0.023;94.855
964.072;0.042;90.845
964.365;0.000;100.000
964.658;0.000;100.000
964.950;0.010;97.685
965.243;0.040;91.200
965.536;0.024;94.633
965.828;0.044;90.464
966.121;0.010;97.821
966.413;0.054;88.210
966.706;0.082;82.773
966.998;0.049;89.382
967.290;0.020;95.441
967.582;0.010;97.685
967.875;0.000;100.000
968.167;0.044;90.464
968.459;0.077;83.741
968.751;0.026;94.143
969.043;0.034;92.543
969.335;0.052;88.625
969.626;0.000;100.000
969.918;0.000;100.000
970.210;0.232;58.583
970.501;0.074;84.333
970.793;0.040;91.200
971.085;0.013;97.022
971.376;0.015;96.595
971.668;0.000;100.000
971.959;0.000;100.000
972.250;0.000;100.000
972.541;0.000;100.000
972.833;0.049;89.382
973.124;0.016;96.350
973.415;0.000;100.000
973.706;0.000;100.000
973.997;0.000;100.000
974.288;0.000;100.000
974.579;0.092;80.900
974.869;0.088;81.692
975.160;0.062;86.786
975.451;0.102;79.109
975.741;0.077;83.741
976.032;0.088;81.692
976.322;0.014;96.818
976.613;0.000;100.000
976.903;0.000;100.000
977.194;0.024;94.633
977.484;0.142;72.071
977.774;0.134;73.409
978.064;0.114;76.976
978.354;0.121;75.750
978.644;0.142;72.071
978.934;0.232;58.583
979.224;0.074;84.333
979.514;0.000;100.000
979.804;0.000;100.000
980.094;0.000;100.000
980.383;0.000;100.000
980.673;0.156;69.808
980.963;0.000;100.000
981.252;0.000;100.000
981.541;0.000;100.000
981.831;0.000;100.000
982.120;0.000;100.000
982.410;0.000;100.000
982.699;0.000;100.000
982.988;0.000;100.000
983.277;0.000;100.000
983.566;0.121;75.750
983.855;0.085;82.187
984.144;0.000;100.000
984.433;0.045;90.056
984.722;0.197;63.553
985.010;0.000;100.000
985.299;0.000;100.000
985.588;0.000;100.000
985.876;0.052;88.625
986.165;3.000;0.100
986.453;0.000;100.000
986.742;0.000;100.000
987.030;0.105;78.611
987.318;0.067;85.654
987.607;0.067;85.654
987.895;0.121;75.750
988.183;0.000;100.000
988.471;0.000;100.000
988.759;0.000;100.000
989.047;0.000;100.000
989.335;0.370;42.643
989.623;0.121;75.750
989.911;0.036;92.136
990.198;0.020;95.441
990.486;0.020;95.441
990.774;0.000;100.000
991.061;0.000;100.000
991.349;0.000;100.000
991.636;0.554;27.929
991.923;3.000;0.100
992.211;0.000;100.000
992.498;3.000;0.100
992.785;0.000;100.000
993.072;0.000;100.000
993.359;0.301;50.000
993.646;0.484;32.833
993.933;0.615;24.250
994.220;0.301;50.000
994.507;3.000;0.100
994.794;3.000;0.100
995.081;0.879;13.214
995.367;0.554;27.929
995.654;0.202;62.875
995.940;0.000;100.000
996.227;1.452;3.529
996.513;0.000;100.000
996.800;3.000;0.100
997.086;0.554;27.929
997.372;0.173;67.167
997.659;0.000;100.000
997.945;0.301;50.000
998.231;3.000;0.100
998.517;0.173;67.167
998.803;0.173;67.167
999.089;0.301;50.000
999.375;0.430;37.125
999.660;0.074;84.333
999.946;0.105;78.611
1000.232;0.268;53.962
1000.517;0.532;29.400
1000.803;3.000;0.100
1001.088;0.401;39.700
1001.374;0.370;42.643
1001.659;0.719;19.100
1001.945;0.301;50.000
1002.230;0.173;67.167
1002.515;0.000;100.000
1002.800;3.000;0.100
1003.085;0.301;50.000
1003.370;3.000;0.100
1003.655;0.615;24.250
1003.940;0.000;100.000
1004.225;0.000;100.000
1004.510;0.000;100.000
1004.795;3.000;0.100
1005.079;3.000;0.100
1005.364;0.000;100.000
1005.649;0.000;100.000
1005.933;3.000;0.100
1006.218;3.000;0.100
1006.502;3.000;0.100
1006.786;3.000;0.100
1007.071;3.000;0.100
1007.355;0.000;100.000
1007.639;0.173;67.167
1007.923;0.000;100.000
1008.207;0.000;100.000
1008.491;0.000;100.000
1008.775;0.000;100.000
1009.059;3.000;0.100
1009.343;0.220;60.300
1009.626;0.151;70.600
1009.910;0.301;50.000
1010.194;0.401;39.700
1010.477;3.000;0.100
1010.761;3.000;0.100
1011.044;3.000;0.100
1011.328;3.000;0.100
1011.611;0.000;100.000
1011.894;0.000;100.000
1012.177;3.000;0.100
1012.461;3.000;0.100
1012.744;3.000;0.100
1013.027;0.867;13.588
1013.310;0.000;100.000
1013.593;3.000;0.100
1013.875;3.000;0.100
1014.158;3.000;0.100
1014.441;0.000;100.000
1014.724;0.000;100.000
1015.006;0.000;100.000
1015.289;0.000;100.000
1015.571;0.052;88.625
1015.854;0.301;50.000
1016.136;3.000;0.100
1016.419;0.484;32.833
1016.701;3.000;0.100
1016.983;0.301;50.000
1017.265;3.000;0.100
1017.547;0.000;100.000
1017.829;0.000;100.000
1018.111;0.000;100.000
1018.393;0.000;100.000
1018.675;0.000;100.000
1018.957;0.000;100.000
1019.239;0.301;50.000
1019.520;0.484;32.833
1019.802;0.000;100.000
1020.084;0.220;60.300
1020.365;0.879;13.214
1020.647;0.194;64.045
1020.928;0.052;88.625
1021.209;0.000;100.000
1021.491;0.000;100.000
1021.772;0.000;100.000
1022.053;0.014;96.818
1022.334;0.017;96.079
1022.615;0.000;100.000
1022.896;0.000;100.000
1023.177;0.000;100.000
1023.458;3.000;0.100
1023.739;3.000;0.100
1024.019;0.000;100.000
1024.300;0.000;100.000
1024.581;0.000;100.000
