Wavelength (nm);Absorbance Solution;Transmittance Solution
341.676;0.000;100.000
342.058;0.000;100.000
342.440;0.092;80.900
342.822;0.092;80.900
343.204;0.029;93.577
343.586;0.049;89.382
343.968;0.052;88.625
344.350;0.074;84.333
344.732;0.241;57.357
345.114;0.805;15.667
345.495;0.370;42.643
345.877;0.000;100.000
346.259;0.000;100.000
346.640;0.000;100.000
347.022;0.000;100.000
347.403;0.000;100.000
347.785;0.000;100.000
348.166;0.000;100.000
348.548;0.000;100.000
348.929;0.000;100.000
349.311;0.040;91.200
349.692;0.000;100.000
350.073;0.000;100.000
350.454;0.000;100.000
350.836;0.000;100.000
351.217;0.000;100.000
351.598;0.000;100.000
351.979;0.000;100.000
352.360;0.000;100.000
352.741;0.000;100.000
353.122;0.000;100.000
353.503;0.000;100.000
353.884;0.000;100.000
354.265;0.067;85.654
354.645;0.074;84.333
355.026;0.100;79.429
355.407;0.401;39.700
355.787;3.000;0.100
356.168;0.220;60.300
356.549;0.142;72.071
356.929;3.000;0.100
357.310;3.000;0.100
357.690;0.000;100.000
358.071;0.121;75.750
358.451;0.000;100.000
358.831;0.000;100.000
359.212;0.000;100.000
359.592;0.000;100.000
359.972;0.000;100.000
360.352;0.000;100.000
360.732;0.000;100.000
361.113;0.062;86.786
361.493;0.121;75.750
361.873;0.000;100.000
362.253;0.000;100.000
362.632;0.000;100.000
363.012;0.092;80.900
363.392;0.000;100.000
363.772;0.000;100.000
364.152;0.000;100.000
364.532;0.045;90.056
364.911;0.301;50.000
365.291;0.615;24.250
365.670;0.202;62.875
366.050;0.202;62.875
366.430;0.301;50.000
366.809;0.000;100.000
367.188;3.000;0.100
367.568;0.000;100.000
367.947;0.000;100.000
368.327;0.000;100.000
368.706;0.000;100.000
369.085;0.000;100.000
369.464;0.000;100.000
369.843;0.000;100.000
370.223;0.000;100.000
370.602;0.000;100.000
370.981;0.000;100.000
371.360;0.000;100.000
371.739;0.000;100.000
372.118;0.000;100.000
372.496;0.000;100.000
372.875;0.000;100.000
373.254;0.052;88.625
373.633;0.301;50.000
374.011;0.040;91.200
374.390;0.000;100.000
374.769;0.000;100.000
375.147;0.040;91.200
375.526;0.000;100.000
375.904;0.000;100.000
376.283;0.062;86.786
376.661;0.142;72.071
377.040;0.062;86.786
377.418;0.241;57.357
377.796;0.142;72.071
378.175;0.062;86.786
378.553;0.000;100.000
378.931;0.000;100.000
379.309;0.000;100.000
379.687;0.000;100.000
380.065;0.173;67.167
380.443;0.173;67.167
380.821;0.134;73.409
381.199;0.121;75.750
381.577;0.000;100.000
381.955;3.000;0.100
382.333;0.000;100.000
382.710;0.000;100.000
383.088;0.000;100.000
383.466;0.220;60.300
383.843;0.301;50.000
384.221;0.354;44.278
384.599;0.220;60.300
384.976;0.000;100.000
385.353;0.000;100.000
385.731;0.000;100.000
386.108;0.062;86.786
386.486;0.220;60.300
386.863;0.337;46.038
387.240;1.056;8.800
387.617;0.452;35.286
387.995;0.520;30.192
388.372;0.879;13.214
388.749;0.142;72.071
389.126;0.052;88.625
389.503;3.000;0.100
389.880;0.000;100.000
390.257;0.000;100.000
390.634;0.000;100.000
391.011;0.121;75.750
391.387;0.142;72.071
391.764;0.082;82.773
392.141;0.000;100.000
392.518;0.000;100.000
392.894;0.000;100.000
393.271;0.000;100.000
393.647;0.000;100.000
394.024;0.000;100.000
394.400;0.000;100.000
394.777;0.062;86.786
395.153;0.000;100.000
395.530;0.301;50.000
395.906;3.000;0.100
396.282;0.000;100.000
396.658;0.040;91.200
397.034;0.000;100.000
397.411;0.000;100.000
397.787;3.000;0.100
398.163;3.000;0.100
398.539;0.000;100.000
398.915;0.000;100.000
399.291;0.000;100.000
399.667;0.000;100.000
400.042;0.000;100.000
400.418;0.000;100.000
400.794;0.000;100.000
401.170;0.000;100.000
401.545;0.000;100.000
401.921;0.000;100.000
402.297;0.000;100.000
402.672;0.000;100.000
403.048;0.000;100.000
403.423;0.484;32.833
403.799;0.615;24.250
404.174;3.000;0.100
404.549;3.000;0.100
404.925;3.000;0.100
405.300;3.000;0.100
405.675;0.000;100.000
406.050;0.000;100.000
406.426;3.000;0.100
406.801;3.000;0.100
407.176;3.000;0.100
407.551;0.000;100.000
407.926;3.000;0.100
408.301;3.000;0.100
408.676;0.000;100.000
409.050;3.000;0.100
409.425;3.000;0.100
409.800;3.000;0.100
410.175;3.000;0.100
410.549;3.000;0.100
410.924;3.000;0.100
411.299;3.000;0.100
411.673;3.000;0.100
412.048;3.000;0.100
412.422;3.000;0.100
412.797;0.000;100.000
413.171;0.000;100.000
413.545;0.000;100.000
413.920;3.000;0.100
414.294;3.000;0.100
414.668;3.000;0.100
415.042;3.000;0.100
415.416;0.000;100.000
415.790;0.000;100.000
416.164;0.000;100.000
416.538;3.000;0.100
416.912;3.000;0.100
417.286;3.000;0.100
417.660;3.000;0.100
418.034;3.000;0.100
418.408;3.000;0.100
418.782;3.000;0.100
419.155;3.000;0.100
419.529;3.000;0.100
419.903;3.000;0.100
420.276;3.000;0.100
420.650;3.000;0.100
421.023;3.000;0.100
421.397;3.000;0.100
421.770;3.000;0.100
422.144;3.000;0.100
422.517;3.000;0.100
422.890;3.000;0.100
423.263;3.000;0.100
423.637;3.000;0.100
424.010;3.000;0.100
424.383;3.000;0.100
424.756;3.000;0.100
425.129;3.000;0.100
425.502;3.000;0.100
425.875;0.000;100.000
426.248;3.000;0.100
426.621;3.000;0.100
426.994;3.000;0.100
427.366;3.000;0.100
427.739;3.000;0.100
428.112;3.000;0.100
428.484;3.000;0.100
428.857;3.000;0.100
429.230;3.000;0.100
429.602;3.000;0.100
429.975;3.000;0.100
430.347;3.000;0.100
430.719;3.000;0.100
431.092;3.000;0.100
431.464;3.000;0.100
431.836;3.000;0.100
432.209;3.000;0.100
432.581;3.000;0.100
432.953;3.000;0.100
433.325;3.000;0.100
433.697;3.000;0.100
434.069;3.000;0.100
434.441;3.000;0.100
434.813;3.000;0.100
435.185;3.000;0.100
435.557;3.000;0.100
435.929;3.000;0.100
436.300;1.917;1.211
436.672;3.000;0.100
437.044;3.000;0.100
437.415;3.000;0.100
437.787;3.000;0.100
438.159;3.000;0.100
438.530;3.000;0.100
438.902;3.000;0.100
439.273;3.000;0.100
439.644;3.000;0.100
440.016;3.000;0.100
440.387;3.000;0.100
440.758;3.000;0.100
441.129;3.000;0.100
441.501;3.000;0.100
441.872;3.000;0.100
442.243;3.000;0.100
442.614;3.000;0.100
442.985;3.000;0.100
443.356;3.000;0.100
443.727;3.000;0.100
444.098;3.000;0.100
444.468;1.497;3.182
444.839;3.000;0.100
445.210;3.000;0.100
445.581;3.000;0.100
445.951;3.000;0.100
446.322;3.000;0.100
446.692;3.000;0.100
447.063;3.000;0.100
447.433;3.000;0.100
447.804;3.000;0.100
448.174;3.000;0.100
448.545;3.000;0.100
448.915;3.000;0.100
449.285;3.000;0.100
449.655;3.000;0.100
450.026;3.000;0.100
450.396;3.000;0.100
450.766;3.000;0.100
451.136;3.000;0.100
451.506;3.000;0.100
451.876;3.000;0.100
452.246;3.000;0.100
452.616;3.000;0.100
452.985;3.000;0.100
453.355;3.000;0.100
453.725;3.000;0.100
454.095;3.000;0.100
454.464;3.000;0.100
454.834;3.000;0.100
455.204;3.000;0.100
455.573;3.000;0.100
455.943;3.000;0.100
456.312;3.000;0.100
456.681;3.000;0.100
457.051;3.000;0.100
457.420;3.000;0.100
457.789;3.000;0.100
458.159;3.000;0.100
458.528;3.000;0.100
458.897;3.000;0.100
459.266;3.000;0.100
459.635;3.000;0.100
460.004;1.807;1.559
460.373;1.324;4.742
460.742;1.306;4.937
461.111;1.520;3.018
461.480;1.875;1.335
461.849;3.000;0.100
462.217;3.000;0.100
462.586;3.000;0.100
462.955;2.390;0.407
463.323;1.554;2.792
463.692;1.714;1.933
464.060;1.739;1.823
464.429;1.351;4.459
464.797;1.331;4.662
465.166;1.554;2.792
465.534;2.830;0.148
465.903;3.000;0.100
466.271;3.000;0.100
466.639;3.000;0.100
467.007;3.000;0.100
467.375;3.000;0.100
467.744;2.830;0.148
468.112;3.000;0.100
468.480;3.000;0.100
468.848;1.563;2.733
469.216;1.554;2.792
469.583;1.446;3.577
469.951;1.549;2.822
470.319;3.000;0.100
470.687;3.000;0.100
471.055;3.000;0.100
471.422;3.000;0.100
471.790;3.000;0.100
472.157;3.000;0.100
472.525;3.000;0.100
472.892;1.982;1.043
473.260;1.460;3.464
473.627;1.563;2.733
473.995;1.627;2.362
474.362;1.243;5.717
474.729;1.083;8.251
475.097;0.933;11.674
475.464;0.936;11.579
475.831;0.989;10.255
476.198;1.206;6.225
476.565;1.258;5.523
476.932;1.232;5.857
477.299;1.162;6.884
477.666;1.113;7.707
478.033;1.056;8.800
478.400;1.058;8.746
478.767;1.099;7.965
479.133;1.150;7.083
479.500;0.960;10.968
479.867;0.889;12.909
480.233;0.891;12.848
480.600;0.884;13.054
480.966;0.926;11.870
481.333;0.928;11.806
481.699;0.912;12.233
482.066;0.983;10.402
482.432;0.858;13.860
482.798;0.816;15.267
483.165;0.868;13.540
483.531;0.812;15.425
483.897;0.814;15.363
484.263;0.827;14.907
484.629;0.856;13.927
484.996;0.864;13.674
485.362;0.845;14.279
485.727;0.771;16.941
486.093;0.766;17.150
486.459;0.771;16.954
486.825;0.736;18.355
487.191;0.672;21.295
487.557;0.681;20.857
487.922;0.715;19.254
488.288;0.595;25.389
488.654;0.599;25.204
489.019;0.576;26.554
489.385;0.566;27.178
489.750;0.544;28.558
490.116;0.499;31.663
490.481;0.551;28.146
490.846;0.541;28.794
491.212;0.548;28.326
491.577;0.531;29.477
491.942;0.493;32.157
492.307;0.560;27.541
492.673;0.567;27.111
493.038;0.520;30.220
493.403;0.465;34.310
493.768;0.512;30.769
494.133;0.452;35.337
494.498;0.441;36.183
494.862;0.474;33.572
495.227;0.491;32.259
495.592;0.475;33.520
495.957;0.428;37.301
496.322;0.430;37.171
496.686;0.419;38.088
497.051;0.425;37.605
497.415;0.460;34.689
497.780;0.441;36.256
498.144;0.456;34.957
498.509;0.443;36.048
498.873;0.426;37.483
499.238;0.450;35.510
499.602;0.459;34.735
499.966;0.456;34.993
500.330;0.455;35.070
500.694;0.433;36.873
501.059;0.454;35.167
501.423;0.400;39.769
501.787;0.417;38.295
502.151;0.396;40.190
502.515;0.407;39.149
502.879;0.413;38.670
503.242;0.405;39.357
503.606;0.389;40.791
503.970;0.435;36.749
504.334;0.397;40.103
504.697;0.448;35.606
505.061;0.409;39.025
505.425;0.408;39.056
505.788;0.406;39.305
506.152;0.393;40.438
506.515;0.365;43.167
506.878;0.368;42.829
507.242;0.364;43.241
507.605;0.360;43.697
507.968;0.356;44.034
508.332;0.387;41.023
508.695;0.382;41.494
509.058;0.374;42.244
509.421;0.375;42.187
509.784;0.364;43.269
510.147;0.389;40.820
510.510;0.352;44.445
510.873;0.356;44.105
511.236;0.389;40.877
511.599;0.359;43.758
511.962;0.357;43.984
512.324;0.319;48.025
512.687;0.357;43.977
513.050;0.338;45.949
513.412;0.344;45.318
513.775;0.344;45.318
514.137;0.408;39.076
514.500;0.381;41.573
514.862;0.330;46.744
515.225;0.341;45.640
515.587;0.321;47.799
515.949;0.317;48.145
516.312;0.321;47.773
516.674;0.336;46.083
517.036;0.350;44.644
517.398;0.324;47.458
517.760;0.347;44.972
518.122;0.347;44.972
518.484;0.324;47.445
518.846;0.318;48.064
519.208;0.349;44.756
519.570;0.367;42.942
519.932;0.308;49.199
520.293;0.338;45.880
520.655;0.301;50.000
521.017;0.314;48.580
521.379;0.307;49.370
521.740;0.316;48.291
522.102;0.317;48.215
522.463;0.312;48.774
522.825;0.313;48.594
523.186;0.312;48.744
523.547;0.301;50.000
523.909;0.357;43.962
524.270;0.301;50.000
524.631;0.302;49.879
524.992;0.309;49.042
525.353;0.311;48.824
525.715;0.308;49.171
526.076;0.293;50.963
526.437;0.304;49.651
526.798;0.306;49.408
527.159;0.322;47.654
527.519;0.322;47.648
527.880;0.315;48.398
528.241;0.333;46.448
528.602;0.290;51.343
528.962;0.312;48.749
529.323;0.322;47.610
529.684;0.328;46.984
530.044;0.298;50.323
530.405;0.294;50.779
530.765;0.314;48.485
531.126;0.309;49.145
531.486;0.267;54.063
531.846;0.262;54.663
532.207;0.280;52.494
532.567;0.266;54.204
532.927;0.298;50.316
533.287;0.280;52.512
533.647;0.285;51.892
534.007;0.290;51.321
534.367;0.267;54.120
534.727;0.285;51.832
535.087;0.278;52.732
535.447;0.305;49.517
535.807;0.286;51.748
536.167;0.266;54.187
536.526;0.312;48.744
536.886;0.314;48.502
537.246;0.254;55.744
537.605;0.339;45.772
537.965;0.304;49.610
538.324;0.285;51.866
538.684;0.278;52.750
539.043;0.281;52.389
539.403;0.276;52.973
539.762;0.320;47.847
540.121;0.292;50.996
540.481;0.292;51.024
540.840;0.296;50.554
541.199;0.312;48.757
541.558;0.291;51.198
541.917;0.285;51.849
542.276;0.293;50.907
542.635;0.287;51.679
542.994;0.271;53.567
543.353;0.275;53.105
543.712;0.237;57.944
544.071;0.292;50.992
544.429;0.276;53.009
544.788;0.252;56.033
545.147;0.259;55.056
545.505;0.253;55.819
545.864;0.289;51.378
546.222;0.274;53.262
546.581;0.294;50.836
546.939;0.276;53.020
547.298;0.264;54.419
547.656;0.291;51.148
548.014;0.266;54.213
548.373;0.293;50.990
548.731;0.243;57.210
549.089;0.247;56.659
549.447;0.252;55.981
549.805;0.278;52.684
550.163;0.244;56.992
550.521;0.258;55.215
550.879;0.221;60.164
551.237;0.243;57.106
551.595;0.251;56.116
551.953;0.246;56.710
552.310;0.240;57.495
552.668;0.257;55.282
553.026;0.245;56.933
553.383;0.240;57.521
553.741;0.234;58.317
554.098;0.258;55.167
554.456;0.236;58.132
554.813;0.210;61.708
555.171;0.238;57.798
555.528;0.233;58.491
555.885;0.232;58.583
556.242;0.238;57.832
556.600;0.209;61.797
556.957;0.230;58.901
557.314;0.214;61.111
557.671;0.238;57.808
558.028;0.219;60.397
558.385;0.215;60.989
558.742;0.234;58.373
559.099;0.202;62.875
559.456;0.226;59.400
559.812;0.183;65.681
560.169;0.215;61.007
560.526;0.201;62.935
560.883;0.185;65.385
561.239;0.214;61.127
561.596;0.205;62.431
561.952;0.215;61.013
562.309;0.190;64.500
562.665;0.224;59.712
563.021;0.191;64.446
563.378;0.192;64.234
563.734;0.218;60.546
564.090;0.195;63.761
564.447;0.215;60.962
564.803;0.218;60.495
565.159;0.182;65.814
565.515;0.208;61.885
565.871;0.211;61.542
566.227;0.196;63.706
566.583;0.199;63.271
566.939;0.200;63.115
567.294;0.202;62.854
567.650;0.194;63.956
568.006;0.180;66.144
568.362;0.215;60.990
568.717;0.235;58.237
569.073;0.220;60.233
569.428;0.192;64.283
569.784;0.200;63.108
570.139;0.214;61.160
570.495;0.201;63.003
570.850;0.194;63.985
571.205;0.201;62.896
571.561;0.224;59.703
571.916;0.213;61.276
572.271;0.196;63.625
572.626;0.204;62.523
572.981;0.225;59.537
573.336;0.231;58.752
573.691;0.215;61.017
574.046;0.221;60.059
574.401;0.190;64.639
574.756;0.235;58.257
575.111;0.222;60.016
575.466;0.236;58.141
575.820;0.219;60.443
576.175;0.242;57.285
576.530;0.239;57.655
576.884;0.227;59.332
577.239;0.231;58.715
577.593;0.237;57.991
577.948;0.250;56.194
578.302;0.209;61.871
578.656;0.237;57.916
579.011;0.231;58.745
579.365;0.249;56.405
579.719;0.242;57.307
580.073;0.235;58.244
580.428;0.246;56.788
580.782;0.265;54.284
581.136;0.222;59.929
581.490;0.234;58.312
581.844;0.254;55.781
582.197;0.241;57.461
582.551;0.254;55.682
582.905;0.256;55.445
583.259;0.253;55.805
583.613;0.253;55.904
583.966;0.206;62.173
584.320;0.229;58.989
584.673;0.243;57.119
585.027;0.219;60.337
585.380;0.239;57.626
585.734;0.223;59.818
586.087;0.221;60.119
586.440;0.268;53.904
586.794;0.264;54.440
587.147;0.239;57.619
587.500;0.246;56.757
587.853;0.231;58.692
588.206;0.272;53.433
588.559;0.270;53.750
588.913;0.270;53.652
589.265;0.257;55.372
589.618;0.250;56.289
589.971;0.262;54.748
590.324;0.239;57.623
590.677;0.231;58.752
591.030;0.246;56.788
591.382;0.195;63.844
591.735;0.246;56.795
592.087;0.253;55.881
592.440;0.199;63.281
592.792;0.240;57.509
593.145;0.238;57.770
593.497;0.240;57.541
593.850;0.226;59.477
594.202;0.275;53.081
594.554;0.234;58.384
594.906;0.204;62.522
595.259;0.248;56.533
595.611;0.247;56.656
595.963;0.221;60.049
596.315;0.233;58.495
596.667;0.192;64.291
597.019;0.231;58.784
597.371;0.195;63.842
597.723;0.213;61.218
598.074;0.199;63.178
598.426;0.218;60.571
598.778;0.205;62.377
599.129;0.215;60.940
599.481;0.219;60.334
599.833;0.177;66.535
600.184;0.189;64.738
600.536;0.180;66.018
600.887;0.184;65.458
601.238;0.195;63.805
601.590;0.207;62.019
601.941;0.181;65.927
602.292;0.187;65.081
602.643;0.158;69.445
602.994;0.196;63.628
603.346;0.174;67.060
603.697;0.194;63.961
604.048;0.186;65.092
604.399;0.168;67.854
604.749;0.184;65.519
605.100;0.207;62.131
605.451;0.140;72.484
605.802;0.172;67.269
606.153;0.154;70.145
606.503;0.176;66.713
606.854;0.156;69.749
607.204;0.182;65.771
607.555;0.168;67.969
607.905;0.143;71.942
608.256;0.159;69.294
608.606;0.144;71.715
608.957;0.145;71.636
609.307;0.136;73.066
609.657;0.118;76.165
610.007;0.151;70.671
610.358;0.136;73.189
610.708;0.137;73.017
611.058;0.107;78.204
611.408;0.124;75.245
611.758;0.140;72.367
612.108;0.134;73.435
612.457;0.129;74.248
612.807;0.127;74.714
613.157;0.139;72.643
613.507;0.132;73.816
613.856;0.121;75.612
614.206;0.140;72.442
614.556;0.122;75.577
614.905;0.127;74.590
615.255;0.123;75.314
615.604;0.082;82.875
615.954;0.138;72.728
616.303;0.125;74.941
616.652;0.100;79.448
617.001;0.130;74.200
617.351;0.106;78.328
617.700;0.123;75.253
618.049;0.127;74.602
618.398;0.116;76.647
618.747;0.125;75.047
619.096;0.102;79.058
619.445;0.109;77.811
619.794;0.126;74.862
620.143;0.127;74.592
620.491;0.115;76.800
620.840;0.109;77.850
621.189;0.108;77.957
621.537;0.120;75.811
621.886;0.109;77.731
622.235;0.105;78.528
622.583;0.117;76.409
622.932;0.097;79.895
623.280;0.105;78.611
623.628;0.111;77.388
623.977;0.114;76.910
624.325;0.106;78.350
624.673;0.084;82.500
625.021;0.117;76.402
625.369;0.106;78.266
625.717;0.107;78.168
626.065;0.124;75.179
626.413;0.094;80.477
626.761;0.095;80.276
627.109;0.099;79.681
627.457;0.120;75.811
627.805;0.101;79.226
628.153;0.102;78.992
628.500;0.103;78.828
628.848;0.115;76.663
629.196;0.097;80.026
629.543;0.100;79.429
629.891;0.113;77.139
630.238;0.100;79.522
630.585;0.077;83.789
630.933;0.097;80.001
631.280;0.079;83.331
631.627;0.112;77.229
631.975;0.094;80.607
632.322;0.101;79.213
632.669;0.125;74.961
633.016;0.106;78.331
633.363;0.106;78.412
633.710;0.107;78.145
634.057;0.106;78.285
634.404;0.105;78.598
634.751;0.111;77.424
635.097;0.094;80.563
635.444;0.100;79.420
635.791;0.098;79.719
636.137;0.112;77.336
636.484;0.113;77.174
636.831;0.103;78.864
637.177;0.089;81.417
637.524;0.090;81.335
637.870;0.099;79.684
638.216;0.120;75.894
638.563;0.113;77.133
638.909;0.091;81.020
639.255;0.099;79.590
639.601;0.089;81.462
639.947;0.119;76.020
640.293;0.092;80.900
640.639;0.119;75.956
640.985;0.081;83.054
641.331;0.097;79.947
641.677;0.101;79.284
642.023;0.103;78.809
642.369;0.097;80.057
642.715;0.106;78.331
643.060;0.094;80.492
643.406;0.108;78.026
643.751;0.093;80.731
644.097;0.104;78.795
644.442;0.102;79.021
644.788;0.110;77.538
645.133;0.091;81.188
645.479;0.100;79.487
645.824;0.107;78.117
646.169;0.101;79.220
646.514;0.092;80.947
646.860;0.083;82.697
647.205;0.088;81.660
647.550;0.113;77.015
647.895;0.105;78.442
648.240;0.102;79.099
648.585;0.085;82.305
648.930;0.100;79.462
649.274;0.118;76.212
649.619;0.096;80.241
649.964;0.093;80.719
650.309;0.116;76.564
650.653;0.089;81.542
650.998;0.105;78.522
651.342;0.102;79.094
651.687;0.110;77.552
652.031;0.088;81.649
652.376;0.101;79.300
652.720;0.094;80.447
653.064;0.096;80.123
653.408;0.090;81.260
653.753;0.084;82.363
654.097;0.111;77.400
654.441;0.090;81.338
654.785;0.094;80.525
655.129;0.096;80.258
655.473;0.102;79.123
655.817;0.102;79.146
656.161;0.084;82.414
656.504;0.073;84.609
656.848;0.091;81.050
657.192;0.074;84.351
657.536;0.091;81.152
657.879;0.101;79.301
658.223;0.109;77.731
658.566;0.061;86.925
658.910;0.094;80.606
659.253;0.098;79.800
659.597;0.093;80.799
659.940;0.081;82.989
660.283;0.105;78.476
660.626;0.094;80.492
660.970;0.086;82.087
661.313;0.097;80.059
661.656;0.093;80.727
661.999;0.080;83.114
662.342;0.090;81.236
662.685;0.095;80.359
663.028;0.079;83.418
663.370;0.101;79.271
663.713;0.088;81.700
664.056;0.091;81.145
664.399;0.091;81.051
664.741;0.091;81.178
665.084;0.085;82.147
665.426;0.080;83.110
665.769;0.094;80.590
666.111;0.087;81.777
666.454;0.102;79.013
666.796;0.087;81.817
667.138;0.090;81.375
667.481;0.098;79.806
667.823;0.089;81.511
668.165;0.090;81.243
668.507;0.091;81.162
668.849;0.079;83.308
669.191;0.078;83.655
669.533;0.078;83.488
669.875;0.084;82.407
670.217;0.088;81.708
670.559;0.086;82.116
670.901;0.071;84.977
671.242;0.085;82.192
671.584;0.098;79.732
671.926;0.093;80.697
672.267;0.090;81.293
672.609;0.090;81.340
672.950;0.092;80.854
673.292;0.086;81.964
673.633;0.079;83.332
673.974;0.079;83.367
674.316;0.099;79.541
674.657;0.087;81.846
674.998;0.098;79.801
675.339;0.085;82.219
675.680;0.087;81.759
676.021;0.098;79.857
676.362;0.084;82.429
676.703;0.071;84.828
677.044;0.087;81.793
677.385;0.081;83.008
677.726;0.088;81.603
678.067;0.084;82.359
678.407;0.074;84.355
678.748;0.069;85.306
679.088;0.069;85.394
679.429;0.088;81.614
679.770;0.092;80.887
680.110;0.091;81.108
680.450;0.085;82.150
680.791;0.086;81.979
681.131;0.062;86.750
681.471;0.088;81.713
681.811;0.083;82.669
682.152;0.096;80.116
682.492;0.086;82.070
682.832;0.084;82.469
683.172;0.079;83.347
683.512;0.086;81.973
683.852;0.087;81.900
684.192;0.081;83.048
684.531;0.093;80.691
684.871;0.070;85.057
685.211;0.082;82.729
685.551;0.088;81.678
685.890;0.082;82.797
686.230;0.081;82.963
686.569;0.075;84.221
686.909;0.066;85.922
687.248;0.086;82.124
687.588;0.082;82.818
687.927;0.082;82.727
688.266;0.083;82.642
688.605;0.062;86.706
688.945;0.091;81.005
689.284;0.078;83.583
689.623;0.093;80.672
689.962;0.087;81.847
690.301;0.082;82.729
690.640;0.074;84.397
690.979;0.079;83.352
691.317;0.071;84.824
691.656;0.077;83.821
691.995;0.085;82.266
692.334;0.077;83.722
692.672;0.080;83.194
693.011;0.076;83.849
693.349;0.077;83.795
693.688;0.068;85.569
694.026;0.077;83.761
694.365;0.083;82.573
694.703;0.073;84.527
695.041;0.073;84.570
695.379;0.082;82.852
695.718;0.084;82.391
696.056;0.082;82.749
696.394;0.076;83.896
696.732;0.087;81.756
697.070;0.078;83.507
697.408;0.077;83.744
697.746;0.064;86.389
698.084;0.073;84.522
698.421;0.070;85.179
698.759;0.077;83.773
699.097;0.095;80.269
699.435;0.074;84.264
699.772;0.073;84.506
700.110;0.080;83.258
700.447;0.076;83.992
700.785;0.075;84.224
701.122;0.073;84.461
701.459;0.073;84.513
701.797;0.076;84.041
702.134;0.066;85.926
702.471;0.068;85.563
702.808;0.075;84.044
703.145;0.069;85.364
703.482;0.075;84.215
703.819;0.069;85.306
704.156;0.083;82.648
704.493;0.079;83.459
704.830;0.065;86.090
705.167;0.075;84.046
705.504;0.078;83.495
705.840;0.069;85.378
706.177;0.069;85.239
706.514;0.075;84.086
706.850;0.071;84.960
707.187;0.071;84.967
707.523;0.064;86.343
707.860;0.071;85.008
708.196;0.075;84.108
708.532;0.071;84.881
708.868;0.064;86.260
709.205;0.075;84.080
709.541;0.069;85.237
709.877;0.073;84.570
710.213;0.070;85.142
710.549;0.063;86.465
710.885;0.078;83.552
711.221;0.069;85.395
711.557;0.071;84.849
711.893;0.070;85.176
712.228;0.066;85.895
712.564;0.066;85.954
712.900;0.069;85.358
713.235;0.066;85.950
713.571;0.072;84.719
713.906;0.082;82.881
714.242;0.072;84.781
714.577;0.062;86.775
714.913;0.070;85.130
715.248;0.063;86.457
715.583;0.072;84.718
715.918;0.063;86.398
716.254;0.067;85.776
716.589;0.059;87.212
716.924;0.056;87.902
717.259;0.063;86.476
717.594;0.071;84.860
717.929;0.067;85.780
718.263;0.068;85.550
718.598;0.070;85.168
718.933;0.064;86.234
719.268;0.074;84.282
719.602;0.066;85.944
719.937;0.064;86.346
720.272;0.069;85.288
720.606;0.061;86.797
720.941;0.072;84.695
721.275;0.069;85.375
721.609;0.061;86.978
721.944;0.066;85.843
722.278;0.060;87.186
722.612;0.061;86.814
722.946;0.071;84.936
723.280;0.066;85.953
723.614;0.060;87.177
723.948;0.062;86.647
724.282;0.067;85.736
724.616;0.066;85.857
724.950;0.069;85.389
725.284;0.062;86.756
725.618;0.061;86.890
725.951;0.068;85.545
726.285;0.062;86.685
726.619;0.064;86.385
726.952;0.053;88.514
727.286;0.066;85.984
727.619;0.047;89.727
727.953;0.059;87.241
728.286;0.053;88.567
728.619;0.066;85.926
728.953;0.059;87.284
729.286;0.065;86.065
729.619;0.064;86.310
729.952;0.070;85.137
730.285;0.068;85.428
730.618;0.045;90.232
730.951;0.066;85.849
731.284;0.051;89.007
731.617;0.060;87.092
731.950;0.051;89.006
732.282;0.065;86.126
732.615;0.057;87.690
732.948;0.062;86.609
733.280;0.062;86.634
733.613;0.058;87.575
733.945;0.066;85.897
734.278;0.058;87.471
734.610;0.058;87.552
734.942;0.062;86.690
735.275;0.059;87.274
735.607;0.064;86.300
735.939;0.060;87.076
736.271;0.058;87.517
736.603;0.051;88.844
736.936;0.064;86.199
737.268;0.051;89.018
737.599;0.066;85.812
737.931;0.066;85.966
738.263;0.063;86.517
738.595;0.050;89.127
738.927;0.056;87.961
739.258;0.057;87.661
739.590;0.064;86.363
739.922;0.049;89.264
740.253;0.067;85.789
740.585;0.055;88.158
740.916;0.061;86.888
741.248;0.053;88.476
741.579;0.058;87.446
741.910;0.062;86.745
742.241;0.058;87.452
742.573;0.062;86.779
742.904;0.054;88.227
743.235;0.055;88.130
743.566;0.073;84.615
743.897;0.060;87.125
744.228;0.057;87.744
744.559;0.054;88.271
744.889;0.048;89.500
745.220;0.074;84.278
745.551;0.066;85.995
745.882;0.051;89.012
746.212;0.070;85.191
746.543;0.055;88.203
746.873;0.061;86.987
747.204;0.068;85.557
747.534;0.059;87.215
747.865;0.062;86.695
748.195;0.059;87.273
748.525;0.054;88.364
748.855;0.064;86.397
749.186;0.058;87.475
749.516;0.064;86.370
749.846;0.065;86.122
750.176;0.055;88.048
750.506;0.053;88.426
750.836;0.059;87.371
751.166;0.066;85.931
751.495;0.072;84.801
751.825;0.061;86.814
752.155;0.052;88.726
752.484;0.048;89.547
752.814;0.063;86.472
753.144;0.063;86.470
753.473;0.055;88.092
753.803;0.059;87.290
754.132;0.070;85.208
754.461;0.066;85.993
754.791;0.066;85.986
755.120;0.057;87.729
755.449;0.063;86.533
755.778;0.067;85.689
756.107;0.062;86.627
756.436;0.054;88.230
756.765;0.073;84.581
757.094;0.061;86.823
757.423;0.055;88.047
757.752;0.076;83.972
758.081;0.060;87.099
758.410;0.060;87.096
758.738;0.055;88.095
759.067;0.065;86.146
759.396;0.067;85.605
759.724;0.059;87.288
760.053;0.066;85.994
760.381;0.064;86.376
760.709;0.052;88.638
761.038;0.076;83.991
761.366;0.052;88.686
761.694;0.046;90.049
762.022;0.056;87.894
762.351;0.053;88.432
762.679;0.055;88.101
763.007;0.071;84.992
763.335;0.050;89.131
763.663;0.073;84.434
763.990;0.057;87.640
764.318;0.060;87.127
764.646;0.064;86.317
764.974;0.066;85.926
765.301;0.059;87.291
765.629;0.064;86.361
765.957;0.061;86.939
766.284;0.058;87.462
766.612;0.067;85.693
766.939;0.063;86.416
767.266;0.058;87.457
767.594;0.066;85.865
767.921;0.058;87.562
768.248;0.055;88.120
768.575;0.046;89.996
768.902;0.053;88.439
769.229;0.063;86.575
769.556;0.073;84.565
769.883;0.062;86.709
770.210;0.057;87.726
770.537;0.067;85.696
770.864;0.061;86.889
771.191;0.060;87.026
771.517;0.058;87.488
771.844;0.047;89.794
772.171;0.051;88.931
772.497;0.061;86.938
772.824;0.047;89.823
773.150;0.060;87.131
773.476;0.051;88.977
773.803;0.071;84.977
774.129;0.065;86.050
774.455;0.055;88.102
774.781;0.057;87.621
775.107;0.069;85.324
775.434;0.058;87.431
775.760;0.053;88.477
776.086;0.054;88.340
776.411;0.061;86.949
776.737;0.057;87.708
777.063;0.059;87.387
777.389;0.060;87.077
777.715;0.057;87.639
778.040;0.058;87.477
778.366;0.057;87.795
778.691;0.050;89.058
779.017;0.050;89.180
779.342;0.063;86.512
779.668;0.056;87.957
779.993;0.046;89.859
780.318;0.047;89.795
780.644;0.061;86.972
780.969;0.036;91.997
781.294;0.067;85.721
781.619;0.046;89.866
781.944;0.061;86.993
782.269;0.041;90.910
782.594;0.053;88.411
782.919;0.058;87.587
783.244;0.067;85.606
783.568;0.050;89.210
783.893;0.059;87.334
784.218;0.048;89.468
784.542;0.044;90.383
784.867;0.060;87.128
785.192;0.045;90.205
785.516;0.044;90.446
785.840;0.061;86.917
786.165;0.036;91.947
786.489;0.048;89.511
786.813;0.051;88.913
787.138;0.038;91.656
787.462;0.050;89.151
787.786;0.048;89.633
788.110;0.069;85.285
788.434;0.041;91.048
788.758;0.035;92.336
789.082;0.054;88.349
789.406;0.059;87.342
789.729;0.049;89.229
790.053;0.038;91.606
790.377;0.038;91.619
790.700;0.048;89.451
791.024;0.047;89.689
791.348;0.038;91.604
791.671;0.054;88.373
791.994;0.049;89.238
792.318;0.046;90.021
792.641;0.046;89.847
792.964;0.054;88.300
793.288;0.042;90.771
793.611;0.034;92.562
793.934;0.049;89.283
794.257;0.066;85.998
794.580;0.048;89.531
794.903;0.040;91.156
795.226;0.045;90.252
795.549;0.052;88.679
795.871;0.044;90.464
796.194;0.043;90.664
796.517;0.037;91.794
796.840;0.046;90.017
797.162;0.054;88.275
797.485;0.038;91.614
797.807;0.045;90.225
798.130;0.044;90.422
798.452;0.027;93.925
798.774;0.052;88.654
799.097;0.056;87.883
799.419;0.021;95.284
799.741;0.038;91.661
800.063;0.037;91.790
800.385;0.028;93.765
800.707;0.031;93.025
801.029;0.049;89.309
801.351;0.045;90.127
801.673;0.046;89.941
801.995;0.042;90.787
802.317;0.031;93.141
802.638;0.051;88.962
802.960;0.036;91.997
803.281;0.042;90.816
803.603;0.027;94.063
803.924;0.043;90.636
804.246;0.046;90.009
804.567;0.042;90.870
804.889;0.019;95.703
805.210;0.047;89.809
805.531;0.048;89.598
805.852;0.045;90.159
806.173;0.036;91.985
806.495;0.051;88.894
806.816;0.014;96.890
807.137;0.040;91.107
807.457;0.034;92.516
807.778;0.019;95.676
808.099;0.022;94.955
808.420;0.036;92.075
808.741;0.008;98.194
809.061;0.008;98.149
809.382;0.052;88.711
809.702;0.005;98.961
810.023;0.015;96.631
810.343;0.041;91.090
810.664;0.034;92.520
810.984;0.033;92.714
811.304;0.063;86.572
811.625;0.032;92.838
811.945;0.000;100.000
812.265;0.048;89.564
812.585;0.051;88.954
812.905;0.057;87.753
813.225;0.020;95.429
813.545;0.032;92.831
813.865;0.048;89.552
814.184;0.022;94.995
814.504;0.023;94.841
814.824;0.029;93.543
815.144;0.020;95.601
815.463;0.022;95.035
815.783;0.027;93.980
816.102;0.043;90.670
816.422;0.005;98.783
816.741;0.039;91.517
817.060;0.028;93.835
817.380;0.046;90.003
817.699;0.020;95.427
818.018;0.037;91.890
818.337;0.015;96.608
818.656;0.026;94.290
818.975;0.031;93.198
819.294;0.033;92.679
819.613;0.000;100.000
819.932;0.038;91.591
820.251;0.031;93.092
820.570;0.010;97.655
820.888;0.012;97.220
821.207;0.025;94.387
821.526;0.038;91.664
821.844;0.053;88.421
822.163;0.030;93.339
822.481;0.048;89.550
822.799;0.042;90.688
823.118;0.017;96.172
823.436;0.030;93.399
823.754;0.062;86.663
824.072;0.055;88.053
824.390;0.025;94.355
824.709;0.033;92.595
825.027;0.056;87.931
825.345;0.011;97.418
825.662;0.011;97.455
825.980;0.063;86.534
826.298;0.058;87.534
826.616;0.047;89.789
826.934;0.029;93.434
827.251;0.032;92.891
827.569;0.032;92.836
827.886;0.013;97.063
828.204;0.060;87.039
828.521;0.016;96.476
828.839;0.024;94.570
829.156;0.044;90.269
829.473;0.037;91.752
829.790;0.032;92.943
830.108;0.067;85.607
830.425;0.058;87.441
830.742;0.042;90.823
831.059;0.055;88.092
831.376;0.041;90.911
831.693;0.041;90.911
832.009;0.032;92.836
832.326;0.042;90.856
832.643;0.032;92.971
832.960;0.021;95.299
833.276;0.031;93.079
833.593;0.062;86.692
833.909;0.058;87.484
834.226;0.052;88.625
834.542;0.056;87.833
834.859;0.060;87.080
835.175;0.020;95.500
835.491;0.067;85.679
835.807;0.034;92.412
836.123;0.028;93.783
836.440;0.031;93.120
836.756;0.019;95.778
837.072;0.024;94.589
837.388;0.032;92.888
837.703;0.051;88.955
838.019;0.051;89.005
838.335;0.080;83.267
838.651;0.021;95.215
838.966;0.034;92.412
839.282;0.084;82.475
839.598;0.047;89.827
839.913;0.102;79.136
840.229;0.066;85.884
840.544;0.038;91.708
840.859;0.042;90.749
841.175;0.071;84.994
841.490;0.044;90.319
841.805;0.082;82.865
842.120;0.060;87.067
842.435;0.034;92.433
842.750;0.100;79.497
843.065;0.045;90.170
843.380;0.058;87.500
843.695;0.046;89.904
844.010;0.012;97.338
844.325;0.050;89.075
844.639;0.045;90.167
844.954;0.024;94.560
845.269;0.053;88.581
845.583;0.079;83.362
845.898;0.034;92.528
846.212;0.080;83.204
846.526;0.045;90.095
846.841;0.044;90.385
847.155;0.049;89.280
847.469;0.034;92.369
847.783;0.062;86.638
848.097;0.000;100.000
848.412;0.075;84.181
848.726;0.007;98.367
849.039;0.087;81.761
849.353;0.044;90.396
849.667;0.057;87.718
849.981;0.040;91.200
850.295;0.067;85.764
850.608;0.087;81.777
850.922;0.072;84.707
851.236;0.054;88.359
851.549;0.060;87.145
851.863;0.056;87.967
852.176;0.070;85.198
852.489;0.057;87.767
852.803;0.048;89.630
853.116;0.065;86.050
853.429;0.048;89.496
853.742;0.062;86.786
854.055;0.066;85.995
854.368;0.008;98.204
854.681;0.070;85.139
854.994;0.075;84.211
855.307;0.099;79.675
855.620;0.056;87.874
855.933;0.070;85.035
856.246;0.064;86.226
856.558;0.077;83.688
856.871;0.025;94.382
857.183;0.045;90.241
857.496;0.029;93.543
857.808;0.077;83.673
858.121;0.065;86.151
858.433;0.031;93.018
858.745;0.081;83.064
859.058;0.026;94.143
859.370;0.053;88.421
859.682;0.037;91.751
859.994;0.034;92.373
860.306;0.031;93.065
860.618;0.076;83.977
860.930;0.068;85.517
861.242;0.045;90.153
861.553;0.005;98.789
861.865;0.050;89.029
862.177;0.043;90.496
862.488;0.095;80.281
862.800;0.107;78.111
863.112;0.086;81.966
863.423;0.055;88.065
863.734;0.075;84.181
864.046;0.033;92.713
864.357;0.051;88.986
864.668;0.023;94.783
864.980;0.044;90.304
865.291;0.050;89.185
865.602;0.054;88.326
865.913;0.039;91.416
866.224;0.047;89.729
866.535;0.048;89.471
866.846;0.021;95.305
867.156;0.056;87.815
867.467;0.072;84.779
867.778;0.027;93.997
868.089;0.008;98.089
868.399;0.000;100.000
868.710;0.011;97.603
869.020;0.034;92.380
869.331;0.070;85.102
869.641;0.060;87.016
869.951;0.017;96.203
870.262;0.031;93.165
870.572;0.029;93.482
870.882;0.081;82.983
871.192;0.051;88.981
871.502;0.058;87.534
871.812;0.070;85.020
872.122;0.041;90.952
872.432;0.061;86.877
872.742;0.053;88.544
873.052;0.034;92.465
873.361;0.002;99.593
873.671;0.058;87.598
873.981;0.062;86.698
874.290;0.018;95.856
874.600;0.000;100.000
874.909;0.038;91.532
875.219;0.079;83.442
875.528;0.030;93.349
875.837;0.007;98.379
876.147;0.010;97.685
876.456;0.013;97.086
876.765;0.000;100.000
877.074;0.028;93.697
877.383;0.041;90.974
877.692;0.000;100.000
878.001;0.000;100.000
878.310;0.000;100.000
878.619;0.018;95.996
878.927;0.050;89.140
879.236;0.047;89.776
879.545;0.038;91.690
879.853;0.098;79.728
880.162;0.078;83.475
880.470;0.083;82.526
880.779;0.045;90.056
881.087;0.064;86.381
881.395;0.043;90.562
881.704;0.045;90.161
882.012;0.048;89.545
882.320;0.030;93.296
882.628;0.048;89.615
882.936;0.071;84.824
883.244;0.017;96.191
883.552;0.024;94.724
883.860;0.059;87.338
884.168;0.045;90.056
884.475;0.113;77.134
884.783;0.105;78.500
885.091;0.000;100.000
885.398;0.039;91.402
885.706;0.012;97.296
886.013;0.013;97.117
886.321;0.000;100.000
886.628;0.000;100.000
886.936;0.064;86.284
887.243;0.042;90.845
887.550;0.119;76.005
887.857;0.070;85.020
888.164;0.023;94.926
888.471;0.009;98.028
888.778;0.045;90.195
889.085;0.028;93.677
889.392;0.010;97.732
889.699;0.041;91.070
890.006;0.029;93.577
890.312;0.022;95.063
890.619;0.000;100.000
890.926;0.000;100.000
891.232;0.005;98.925
891.539;0.091;81.140
891.845;0.021;95.220
892.152;0.074;84.333
892.458;0.095;80.404
892.764;0.029;93.474
893.070;0.000;100.000
893.377;0.027;94.036
893.683;0.034;92.543
893.989;0.051;89.015
894.295;0.145;71.645
894.601;0.079;83.324
894.907;0.014;96.818
895.213;0.039;91.345
895.518;0.042;90.739
895.824;0.031;93.057
896.130;0.043;90.576
896.435;0.056;87.992
896.741;0.068;85.517
897.046;0.038;91.596
897.352;0.064;86.241
897.657;0.002;99.480
897.963;0.030;93.260
898.268;0.064;86.241
898.573;0.050;89.069
898.878;0.057;87.767
899.183;0.000;100.000
899.488;0.000;100.000
899.793;0.000;100.000
900.098;0.000;100.000
900.403;0.060;87.044
900.708;0.147;71.310
901.013;0.092;80.900
901.318;0.044;90.264
901.622;0.050;89.140
901.927;0.023;94.783
902.232;0.039;91.402
902.536;0.003;99.261
902.841;0.000;100.000
903.145;0.003;99.261
903.449;0.003;99.354
903.754;0.000;100.000
904.058;0.025;94.477
904.362;0.049;89.238
904.666;0.092;80.900
904.970;0.047;89.840
905.274;0.012;97.380
905.578;0.000;100.000
905.882;0.000;100.000
906.186;0.000;100.000
906.490;0.007;98.471
906.793;0.000;100.000
907.097;0.004;98.988
907.401;0.045;90.056
907.704;0.092;80.900
908.008;0.069;85.237
908.311;0.076;83.968
908.615;0.090;81.348
908.918;0.133;73.604
909.221;0.131;74.033
909.525;0.041;90.936
909.828;0.000;100.000
910.131;0.007;98.471
910.434;0.077;83.843
910.737;0.204;62.527
911.040;0.142;72.071
911.343;0.112;77.265
911.646;0.113;77.105
911.949;0.072;84.797
912.251;0.065;86.050
912.554;0.000;100.000
912.857;0.000;100.000
913.159;0.023;94.855
913.462;0.045;90.056
913.764;0.074;84.333
914.067;0.060;87.194
914.369;0.129;74.235
914.671;0.266;54.176
914.973;0.272;53.433
915.276;0.215;60.924
915.578;0.158;69.534
915.880;0.096;80.190
916.182;0.051;89.015
916.484;0.142;72.071
916.786;0.121;75.750
917.087;0.045;90.056
917.389;0.000;100.000
917.691;0.062;86.786
917.993;0.151;70.600
918.294;0.142;72.071
918.596;0.112;77.265
918.897;0.006;98.557
919.199;0.044;90.365
919.500;0.047;89.729
919.802;0.000;100.000
920.103;0.000;100.000
920.404;0.000;100.000
920.705;0.006;98.557
921.006;0.051;88.939
921.307;0.058;87.581
921.608;0.088;81.565
921.909;0.173;67.167
922.210;0.145;71.684
922.511;0.129;74.235
922.812;0.180;66.094
923.113;0.241;57.357
923.413;0.202;62.875
923.714;0.189;64.714
924.015;0.128;74.395
924.315;0.159;69.313
924.615;0.150;70.819
924.916;0.052;88.625
925.216;0.031;93.149
925.516;0.037;91.844
925.817;0.000;100.000
926.117;0.000;100.000
926.417;0.044;90.365
926.717;0.033;92.671
927.017;0.101;79.230
927.317;0.210;61.705
927.617;0.142;72.071
927.917;0.040;91.200
928.216;0.007;98.471
928.516;0.007;98.471
928.816;0.062;86.786
929.115;0.107;78.242
929.415;0.021;95.258
929.715;0.000;100.000
930.014;0.062;86.786
930.313;0.085;82.187
930.613;0.108;77.957
930.912;0.140;72.449
931.211;0.077;83.843
931.510;0.121;75.750
931.809;0.197;63.553
932.108;0.092;80.900
932.407;0.089;81.472
932.706;0.062;86.786
933.005;0.007;98.471
933.304;0.049;89.382
933.603;0.074;84.333
933.902;0.000;100.000
934.200;0.067;85.654
934.499;0.084;82.337
934.797;0.095;80.372
935.096;0.092;80.900
935.394;0.047;89.729
935.693;0.147;71.354
935.991;0.162;68.841
936.289;0.006;98.557
936.587;0.051;89.015
936.885;0.000;100.000
937.184;0.000;100.000
937.482;0.000;100.000
937.780;0.121;75.750
938.077;0.060;87.194
938.375;0.028;93.775
938.673;0.121;75.750
938.971;0.063;86.427
939.269;0.043;90.658
939.566;0.049;89.382
939.864;0.156;69.808
940.161;0.153;70.360
940.459;0.132;73.866
940.756;0.006;98.639
941.054;0.000;100.000
941.351;0.044;90.464
941.648;0.116;76.530
941.945;0.208;61.885
942.242;0.147;71.354
942.539;0.092;80.900
942.836;0.081;83.013
943.133;0.103;78.890
943.430;0.092;80.900
943.727;0.095;80.372
944.024;0.092;80.900
944.321;0.208;61.885
944.617;0.247;56.603
944.914;0.178;66.329
945.210;0.157;69.619
945.507;0.190;64.526
945.803;0.133;73.662
946.100;0.113;77.105
946.396;0.153;70.360
946.692;0.100;79.429
946.989;0.032;92.917
947.285;0.085;82.187
947.581;0.077;83.843
947.877;0.079;83.324
948.173;0.082;82.773
948.469;0.216;60.779
948.765;0.237;57.923
949.061;0.151;70.600
949.356;0.068;85.478
949.652;0.063;86.427
949.948;0.086;82.014
950.243;0.128;74.395
950.539;0.020;95.441
950.834;0.000;100.000
951.130;0.016;96.476
951.425;0.000;100.000
951.720;0.010;97.685
952.016;0.166;68.176
952.311;0.173;67.167
952.606;0.148;71.068
952.901;0.121;75.750
953.196;0.063;86.427
953.491;0.095;80.432
953.786;0.067;85.654
954.081;0.058;87.581
954.376;0.044;90.365
954.670;0.043;90.658
954.965;0.067;85.654
955.260;0.067;85.654
955.554;0.077;83.843
955.849;0.000;100.000
956.143;0.000;100.000
956.438;0.012;97.380
956.732;0.116;76.638
957.026;0.164;68.540
957.320;0.045;90.056
957.615;0.000;100.000
957.909;0.000;100.000
958.203;0.000;100.000
958.497;0.022;95.063
958.791;0.022;95.063
959.085;0.000;100.000
959.378;0.036;92.136
959.672;0.037;91.844
959.966;0.069;85.406
960.260;0.107;78.242
960.553;0.166;68.176
960.847;0.121;75.750
961.140;0.092;80.900
961.434;0.124;75.090
961.727;0.067;85.654
962.020;0.074;84.333
962.314;0.045;90.056
962.607;0.064;86.353
962.900;0.116;76.530
963.193;0.173;67.167
963.486;0.037;91.844
963.779;0.000;100.000
964.072;0.116;76.638
964.365;0.149;70.981
964.658;0.142;72.071
964.950;0.126;74.796
965.243;0.151;70.600
965.536;0.131;74.033
965.828;0.044;90.464
966.121;0.026;94.143
966.413;0.107;78.242
966.706;0.215;60.924
966.998;0.129;74.235
967.290;0.049;89.382
967.582;0.000;100.000
967.875;0.050;89.140
968.167;0.121;75.750
968.459;0.136;73.086
968.751;0.100;79.429
969.043;0.078;83.587
969.335;0.074;84.333
969.626;0.000;100.000
969.918;0.000;100.000
970.210;0.032;92.917
970.501;0.105;78.611
970.793;0.000;100.000
971.085;0.000;100.000
971.376;0.000;100.000
971.668;0.000;100.000
971.959;0.020;95.441
972.250;0.062;86.786
972.541;0.137;72.889
972.833;0.228;59.088
973.124;0.184;65.450
973.415;0.045;90.056
973.706;0.016;96.350
973.997;0.032;92.917
974.288;0.010;97.685
974.579;0.092;80.900
974.869;0.011;97.538
975.160;0.000;100.000
975.451;0.055;88.065
975.741;0.042;90.845
976.032;0.067;85.654
976.322;0.014;96.818
976.613;0.000;100.000
976.903;0.000;100.000
977.194;0.173;67.167
977.484;0.173;67.167
977.774;0.194;64.045
978.064;0.173;67.167
978.354;0.092;80.900
978.644;0.142;72.071
978.934;0.301;50.000
979.224;0.383;41.417
979.514;0.272;53.433
979.804;0.092;80.900
980.094;0.045;90.056
980.383;0.067;85.654
980.673;0.000;100.000
980.963;0.000;100.000
981.252;0.020;95.441
981.541;0.079;83.324
981.831;0.100;79.429
982.120;0.173;67.167
982.410;0.085;82.187
982.699;0.000;100.000
982.988;0.134;73.409
983.277;0.208;61.885
983.566;0.248;56.437
983.855;0.121;75.750
984.144;0.000;100.000
984.433;0.173;67.167
984.722;0.438;36.447
985.010;0.444;35.955
985.299;0.000;100.000
985.588;0.000;100.000
985.876;0.202;62.875
986.165;3.000;0.100
986.453;0.000;100.000
986.742;0.000;100.000
987.030;0.105;78.611
987.318;0.109;77.731
987.607;0.109;77.731
987.895;0.202;62.875
988.183;0.262;54.682
988.471;3.000;0.100
988.759;0.370;42.643
989.047;0.301;50.000
989.335;0.879;13.214
989.623;0.301;50.000
989.911;0.036;92.136
990.198;0.000;100.000
990.486;0.000;100.000
990.774;0.000;100.000
991.061;0.000;100.000
991.349;0.074;84.333
991.636;0.370;42.643
991.923;3.000;0.100
992.211;0.000;100.000
992.498;0.000;100.000
992.785;0.000;100.000
993.072;0.000;100.000
993.359;0.000;100.000
993.646;0.000;100.000
993.933;0.121;75.750
994.220;0.301;50.000
994.507;0.484;32.833
994.794;3.000;0.100
995.081;0.879;13.214
995.367;0.241;57.357
995.654;0.052;88.625
995.940;0.000;100.000
996.227;3.000;0.100
996.513;0.000;100.000
996.800;3.000;0.100
997.086;3.000;0.100
997.372;0.173;67.167
997.659;0.000;100.000
997.945;0.000;100.000
998.231;0.000;100.000
998.517;0.074;84.333
998.803;3.000;0.100
999.089;0.719;19.100
999.375;0.430;37.125
999.660;0.301;50.000
999.946;0.484;32.833
1000.232;0.419;38.115
1000.517;1.056;8.800
1000.803;3.000;0.100
1001.088;3.000;0.100
1001.374;3.000;0.100
1001.659;3.000;0.100
1001.945;0.805;15.667
1002.230;0.173;67.167
1002.515;3.000;0.100
1002.800;3.000;0.100
1003.085;0.000;100.000
1003.370;0.401;39.700
1003.655;3.000;0.100
1003.940;0.000;100.000
1004.225;3.000;0.100
1004.510;3.000;0.100
1004.795;0.000;100.000
1005.079;0.000;100.000
1005.364;0.484;32.833
1005.649;3.000;0.100
1005.933;0.000;100.000
1006.218;0.121;75.750
1006.502;3.000;0.100
1006.786;3.000;0.100
1007.071;3.000;0.100
1007.355;0.000;100.000
1007.639;0.000;100.000
1007.923;3.000;0.100
1008.207;3.000;0.100
1008.491;0.000;100.000
1008.775;0.000;100.000
1009.059;3.000;0.100
1009.343;3.000;0.100
1009.626;1.056;8.800
1009.910;3.000;0.100
1010.194;3.000;0.100
1010.477;0.301;50.000
1010.761;0.301;50.000
1011.044;0.484;32.833
1011.328;3.000;0.100
1011.611;3.000;0.100
1011.894;3.000;0.100
1012.177;0.000;100.000
1012.461;0.000;100.000
1012.744;3.000;0.100
1013.027;1.219;6.044
1013.310;3.000;0.100
1013.593;3.000;0.100
1013.875;3.000;0.100
1014.158;3.000;0.100
1014.441;0.615;24.250
1014.724;0.401;39.700
1015.006;0.121;75.750
1015.289;0.202;62.875
1015.571;0.052;88.625
1015.854;0.092;80.900
1016.136;0.615;24.250
1016.419;0.484;32.833
1016.701;3.000;0.100
1016.983;3.000;0.100
1017.265;3.000;0.100
1017.547;0.000;100.000
1017.829;0.000;100.000
1018.111;0.000;100.000
1018.393;0.142;72.071
1018.675;3.000;0.100
1018.957;3.000;0.100
1019.239;0.615;24.250
1019.520;3.000;0.100
1019.802;3.000;0.100
1020.084;0.719;19.100
1020.365;0.370;42.643
1020.647;0.036;92.136
1020.928;0.022;95.063
1021.209;0.032;92.917
1021.491;0.000;100.000
1021.772;0.000;100.000
1022.053;0.000;100.000
1022.334;0.000;100.000
1022.615;0.000;100.000
1022.896;0.000;100.000
1023.177;0.000;100.000
1023.458;0.000;100.000
1023.739;0.000;100.000
1024.019;3.000;0.100
1024.300;0.062;86.786
1024.581;0.029;93.577
